Experiment	bias spectroscopy	
Date	01.12.2015 01:45:43	
User		
X (m)	280.811E-9	
Y (m)	-139.245E-9	
Z (m)	-4.07703E-9	
Z offset (m)	0E+0	
Settling time (s)	30E-3	
Integration time (s)	200E-3	
Z-Ctrl hold	TRUE	
Final Z (m)	-4.07703E-9	
Filter type	None	
Order		
Cutoff frq		
Current (A)	84.8798E-12	
Z (m)	-4.07703E-9	
Phase (deg)	-564.599E-3	
Amplitude (m)	39.7644E-12	
Frequency Shift (Hz)	-1.25343E+0	
Excitation (V)	27.7971E-3	

[DATA]
Bias calc (V)	Current (A)	Applied Voltage measured (V)	Bias (V)	Phase (deg)	Amplitude (m)	Frequency Shift (Hz)	Excitation (V)
1.00000E+0	83.2997E-12	999.330E-3	1.00000E+0	-209.268E-3	40.0085E-12	-1.10172E+0	20.3931E-3
988.189E-3	82.7580E-12	987.538E-3	988.189E-3	-265.574E-3	40.0326E-12	-1.15977E+0	20.3184E-3
976.378E-3	81.6470E-12	975.771E-3	976.378E-3	-12.9187E-3	40.0047E-12	-1.09616E+0	23.5064E-3
964.567E-3	81.3156E-12	963.904E-3	964.567E-3	156.963E-3	40.0187E-12	-992.281E-3	23.9734E-3
952.756E-3	80.2291E-12	952.146E-3	952.756E-3	-4.47013E-3	40.0263E-12	-1.03284E+0	23.4616E-3
940.945E-3	79.4865E-12	940.313E-3	940.945E-3	82.4611E-6	39.8555E-12	-1.05205E+0	29.6260E-3
929.134E-3	79.7714E-12	928.488E-3	929.134E-3	72.8008E-3	40.1314E-12	-1.01564E+0	20.1793E-3
917.323E-3	78.7916E-12	916.730E-3	917.323E-3	-89.6545E-3	39.9349E-12	-1.09334E+0	24.7534E-3
905.512E-3	77.4354E-12	904.876E-3	905.512E-3	-3.94763E-3	39.9262E-12	-1.05097E+0	23.7790E-3
893.701E-3	77.4002E-12	893.124E-3	893.701E-3	196.760E-3	40.1727E-12	-977.945E-3	19.5672E-3
881.890E-3	76.2679E-12	881.281E-3	881.890E-3	-135.327E-3	39.8943E-12	-1.06864E+0	25.3386E-3
870.079E-3	75.5600E-12	869.471E-3	870.079E-3	-118.494E-3	40.0133E-12	-1.10738E+0	19.8774E-3
858.268E-3	74.8635E-12	857.650E-3	858.268E-3	63.1194E-3	39.9809E-12	-1.04088E+0	21.2639E-3
846.457E-3	73.2832E-12	845.821E-3	846.457E-3	94.4891E-3	39.8914E-12	-1.02311E+0	25.7110E-3
834.646E-3	73.1650E-12	834.052E-3	834.646E-3	241.078E-3	40.0140E-12	-942.046E-3	25.3803E-3
822.835E-3	72.5625E-12	822.232E-3	822.835E-3	-3.85254E-3	39.9036E-12	-1.02074E+0	25.7105E-3
811.024E-3	71.5327E-12	810.409E-3	811.024E-3	-153.481E-3	40.0589E-12	-1.05825E+0	23.6633E-3
799.213E-3	71.3900E-12	798.641E-3	799.213E-3	103.248E-3	40.2079E-12	-987.300E-3	19.7803E-3
787.402E-3	70.0816E-12	786.814E-3	787.402E-3	100.190E-3	39.9772E-12	-970.027E-3	25.6792E-3
775.591E-3	69.3240E-12	775.024E-3	775.591E-3	180.386E-3	40.0361E-12	-928.325E-3	25.6349E-3
763.780E-3	68.3986E-12	763.194E-3	763.780E-3	-237.865E-3	40.0119E-12	-1.08242E+0	21.3235E-3
751.969E-3	67.4962E-12	751.420E-3	751.969E-3	98.7832E-3	39.9513E-12	-983.990E-3	25.5074E-3
740.157E-3	67.1999E-12	739.625E-3	740.157E-3	-96.4874E-3	40.1444E-12	-1.03103E+0	19.8454E-3
728.346E-3	65.6542E-12	727.789E-3	728.346E-3	109.062E-3	39.9476E-12	-989.890E-3	24.1785E-3
716.535E-3	65.6353E-12	715.995E-3	716.535E-3	108.734E-3	40.0814E-12	-940.875E-3	24.6355E-3
704.724E-3	64.9786E-12	704.309E-3	704.724E-3	-75.5982E-3	40.0041E-12	-1.02312E+0	22.3512E-3
692.913E-3	63.4869E-12	692.510E-3	692.913E-3	66.2542E-3	40.1096E-12	-961.916E-3	20.2531E-3
681.102E-3	62.8429E-12	680.742E-3	681.102E-3	-270.963E-3	40.0468E-12	-1.11580E+0	22.1697E-3
669.291E-3	61.8476E-12	668.922E-3	669.291E-3	286.664E-3	39.8969E-12	-900.657E-3	25.5201E-3
657.480E-3	61.1989E-12	657.088E-3	657.480E-3	-91.1056E-3	40.0949E-12	-1.00466E+0	23.3192E-3
645.669E-3	59.6154E-12	645.275E-3	645.669E-3	119.355E-3	39.9031E-12	-966.069E-3	25.9877E-3
633.858E-3	59.2633E-12	633.462E-3	633.858E-3	-179.327E-3	40.0927E-12	-1.04582E+0	24.3418E-3
622.047E-3	58.6187E-12	621.661E-3	622.047E-3	43.1479E-3	40.0314E-12	-967.002E-3	24.3949E-3
610.236E-3	57.0648E-12	609.895E-3	610.236E-3	151.946E-3	40.0653E-12	-930.151E-3	23.7299E-3
598.425E-3	56.1885E-12	598.080E-3	598.425E-3	-11.8076E-3	39.9253E-12	-969.819E-3	25.2632E-3
586.614E-3	56.2520E-12	586.268E-3	586.614E-3	-110.596E-3	40.0241E-12	-1.02217E+0	23.1000E-3
574.803E-3	54.8195E-12	574.456E-3	574.803E-3	-204.201E-3	40.0443E-12	-1.08068E+0	21.9129E-3
562.992E-3	53.4481E-12	562.678E-3	562.992E-3	112.070E-3	40.0526E-12	-1.00199E+0	20.5561E-3
551.181E-3	52.4888E-12	550.860E-3	551.181E-3	81.6631E-3	39.9978E-12	-998.304E-3	26.6784E-3
539.370E-3	51.9912E-12	538.993E-3	539.370E-3	57.6742E-3	40.0218E-12	-989.876E-3	23.3105E-3
527.559E-3	50.3384E-12	527.210E-3	527.559E-3	35.2285E-3	39.9236E-12	-991.413E-3	24.8806E-3
515.748E-3	49.4459E-12	515.378E-3	515.748E-3	-74.6316E-3	40.0411E-12	-1.01273E+0	22.0593E-3
503.937E-3	49.0494E-12	503.589E-3	503.937E-3	-14.4679E-3	39.9723E-12	-1.03258E+0	25.3698E-3
492.126E-3	47.8478E-12	491.763E-3	492.126E-3	17.9542E-3	39.9807E-12	-1.01741E+0	26.0262E-3
480.315E-3	46.9853E-12	479.951E-3	480.315E-3	140.775E-3	39.9678E-12	-973.179E-3	23.8241E-3
468.504E-3	45.9295E-12	468.154E-3	468.504E-3	38.2287E-3	40.0729E-12	-978.750E-3	23.0738E-3
456.693E-3	44.6578E-12	456.347E-3	456.693E-3	68.6872E-3	40.0190E-12	-965.883E-3	24.0972E-3
444.882E-3	43.8464E-12	444.584E-3	444.882E-3	-132.307E-3	39.9292E-12	-1.04467E+0	26.6222E-3
433.071E-3	43.1291E-12	432.753E-3	433.071E-3	-12.6653E-3	40.0320E-12	-1.00403E+0	24.3440E-3
421.260E-3	42.0109E-12	420.939E-3	421.260E-3	14.6048E-3	40.0796E-12	-1.00009E+0	22.4417E-3
409.449E-3	40.2732E-12	409.163E-3	409.449E-3	82.9061E-3	39.9127E-12	-989.063E-3	27.5860E-3
397.638E-3	39.3672E-12	397.312E-3	397.638E-3	-6.26917E-3	40.0467E-12	-1.02008E+0	25.4021E-3
385.827E-3	38.5862E-12	385.554E-3	385.827E-3	-58.4811E-3	40.0776E-12	-1.05475E+0	24.9838E-3
374.016E-3	37.6532E-12	373.706E-3	374.016E-3	111.423E-3	39.9704E-12	-1.00177E+0	25.5552E-3
362.205E-3	35.9201E-12	361.902E-3	362.205E-3	-7.97836E-3	39.9152E-12	-1.02452E+0	29.4285E-3
350.394E-3	35.3206E-12	350.154E-3	350.394E-3	102.780E-3	40.0491E-12	-999.129E-3	25.0939E-3
338.583E-3	33.7570E-12	338.302E-3	338.583E-3	-33.0751E-3	39.9756E-12	-1.03161E+0	26.8324E-3
326.772E-3	32.9561E-12	326.509E-3	326.772E-3	-77.5262E-3	40.0311E-12	-1.08212E+0	24.5174E-3
314.961E-3	32.2012E-12	314.666E-3	314.961E-3	-181.487E-3	40.0304E-12	-1.13540E+0	26.1612E-3
303.150E-3	31.1963E-12	302.855E-3	303.150E-3	181.257E-3	40.0344E-12	-1.03763E+0	25.1941E-3
291.339E-3	29.4825E-12	291.108E-3	291.339E-3	81.0357E-3	39.8876E-12	-1.03916E+0	30.1948E-3
279.528E-3	28.0835E-12	279.280E-3	279.528E-3	27.3047E-3	40.0215E-12	-1.04943E+0	24.8249E-3
267.717E-3	27.2538E-12	267.472E-3	267.717E-3	2.83195E-3	40.0447E-12	-1.04469E+0	23.7348E-3
255.906E-3	26.0600E-12	255.646E-3	255.906E-3	-60.3201E-3	39.9905E-12	-1.10157E+0	25.1827E-3
244.094E-3	24.7991E-12	243.862E-3	244.094E-3	-16.2609E-3	39.9338E-12	-1.09993E+0	27.6310E-3
232.283E-3	23.9423E-12	232.018E-3	232.283E-3	-11.7959E-3	39.9678E-12	-1.09795E+0	26.6523E-3
220.472E-3	22.6230E-12	220.178E-3	220.472E-3	16.4460E-3	39.9877E-12	-1.10684E+0	25.6783E-3
208.661E-3	21.2808E-12	208.407E-3	208.661E-3	19.8661E-3	40.0090E-12	-1.10719E+0	24.5091E-3
196.850E-3	20.2035E-12	196.572E-3	196.850E-3	68.0305E-3	39.9725E-12	-1.09776E+0	25.6789E-3
185.039E-3	19.1641E-12	184.808E-3	185.039E-3	20.5120E-3	40.0216E-12	-1.11108E+0	23.2892E-3
173.228E-3	17.9899E-12	172.992E-3	173.228E-3	-69.7596E-3	39.9365E-12	-1.14176E+0	26.8962E-3
161.417E-3	16.7503E-12	161.156E-3	161.417E-3	41.3541E-3	40.0077E-12	-1.10021E+0	25.0626E-3
149.606E-3	15.2790E-12	149.330E-3	149.606E-3	8.71711E-3	40.0025E-12	-1.10743E+0	24.6321E-3
137.795E-3	14.1018E-12	137.543E-3	137.795E-3	12.3384E-3	40.0566E-12	-1.11278E+0	24.7130E-3
125.984E-3	13.0357E-12	125.782E-3	125.984E-3	882.912E-6	40.0429E-12	-1.12087E+0	24.3070E-3
114.173E-3	11.7386E-12	113.937E-3	114.173E-3	-76.3252E-3	40.0181E-12	-1.17225E+0	22.8830E-3
102.362E-3	10.1489E-12	102.124E-3	102.362E-3	27.2933E-3	39.8678E-12	-1.15973E+0	29.3286E-3
90.5512E-3	9.13902E-12	90.3142E-3	90.5512E-3	-67.8220E-3	39.9915E-12	-1.18734E+0	26.1224E-3
78.7402E-3	7.92244E-12	78.4772E-3	78.7402E-3	17.8323E-3	40.0625E-12	-1.18367E+0	23.4266E-3
66.9291E-3	6.75687E-12	66.6113E-3	66.9291E-3	54.8095E-3	39.9871E-12	-1.19692E+0	27.7116E-3
55.1181E-3	5.54518E-12	54.8440E-3	55.1181E-3	-34.4724E-3	40.0013E-12	-1.23268E+0	25.3134E-3
43.3071E-3	4.32074E-12	43.0161E-3	43.3071E-3	177.304E-3	40.0010E-12	-1.14891E+0	25.1254E-3
31.4961E-3	3.08654E-12	31.1921E-3	31.4961E-3	-89.0835E-3	39.9470E-12	-1.23565E+0	28.2354E-3
19.6850E-3	1.81000E-12	19.4006E-3	19.6850E-3	6.10056E-3	40.0036E-12	-1.22280E+0	25.4012E-3
7.87402E-3	672.414E-15	7.54713E-3	7.87402E-3	32.7520E-3	39.9840E-12	-1.22739E+0	26.3482E-3
-3.93701E-3	-423.474E-15	-4.34058E-3	-3.93701E-3	72.9994E-3	40.0323E-12	-1.19703E+0	26.0185E-3
-15.7480E-3	-1.61169E-12	-16.1197E-3	-15.7480E-3	-137.028E-3	39.9485E-12	-1.26748E+0	27.3207E-3
-27.5591E-3	-2.86374E-12	-27.9326E-3	-27.5591E-3	-40.3842E-3	40.0092E-12	-1.26530E+0	26.2445E-3
-39.3701E-3	-3.93887E-12	-39.7000E-3	-39.3701E-3	-58.7090E-3	39.9619E-12	-1.30148E+0	28.4581E-3
-51.1811E-3	-5.04389E-12	-51.5519E-3	-51.1811E-3	110.102E-3	40.0402E-12	-1.26036E+0	24.7830E-3
-62.9921E-3	-6.17939E-12	-63.3287E-3	-62.9921E-3	131.916E-3	40.0215E-12	-1.26538E+0	26.2888E-3
-74.8032E-3	-7.01521E-12	-75.1580E-3	-74.8032E-3	-41.8301E-3	39.9818E-12	-1.30482E+0	29.0820E-3
-86.6142E-3	-7.52623E-12	-87.0177E-3	-86.6142E-3	-88.5219E-3	40.0474E-12	-1.33144E+0	27.2606E-3
-98.4252E-3	-7.94760E-12	-98.7894E-3	-98.4252E-3	-50.9090E-3	40.0149E-12	-1.31616E+0	25.5132E-3
-110.236E-3	-8.59691E-12	-110.646E-3	-110.236E-3	-126.889E-3	39.9890E-12	-1.38327E+0	27.0544E-3
-122.047E-3	-9.12452E-12	-122.391E-3	-122.047E-3	65.5051E-3	40.0413E-12	-1.33059E+0	26.0216E-3
-133.858E-3	-9.66117E-12	-134.243E-3	-133.858E-3	134.332E-3	39.9277E-12	-1.30970E+0	27.8833E-3
-145.669E-3	-10.2894E-12	-146.043E-3	-145.669E-3	-28.7373E-3	40.0382E-12	-1.34865E+0	25.0935E-3
-157.480E-3	-11.0207E-12	-157.820E-3	-157.480E-3	-34.2814E-3	40.0443E-12	-1.36322E+0	22.5955E-3
-169.291E-3	-11.7024E-12	-169.695E-3	-169.291E-3	-41.8169E-3	40.0289E-12	-1.37767E+0	24.5082E-3
-181.102E-3	-12.1928E-12	-181.430E-3	-181.102E-3	-13.7580E-3	39.8834E-12	-1.39412E+0	29.4405E-3
-192.913E-3	-12.9399E-12	-193.238E-3	-192.913E-3	-39.9426E-3	40.0403E-12	-1.40019E+0	25.8938E-3
-204.724E-3	-13.5111E-12	-205.066E-3	-204.724E-3	-123.972E-3	40.0041E-12	-1.44805E+0	25.8204E-3
-216.535E-3	-14.0375E-12	-216.874E-3	-216.535E-3	92.1471E-3	40.0143E-12	-1.40150E+0	25.6500E-3
-228.346E-3	-14.8044E-12	-228.686E-3	-228.346E-3	-64.1802E-3	39.9844E-12	-1.44355E+0	29.4674E-3
-240.157E-3	-15.7142E-12	-240.492E-3	-240.157E-3	-103.072E-3	40.0562E-12	-1.47203E+0	24.3018E-3
-251.969E-3	-16.3830E-12	-252.311E-3	-251.969E-3	-80.8246E-3	39.9964E-12	-1.49329E+0	27.9030E-3
-263.780E-3	-17.1762E-12	-264.080E-3	-263.780E-3	18.2510E-3	39.9104E-12	-1.47242E+0	28.9841E-3
-275.591E-3	-17.9410E-12	-275.889E-3	-275.591E-3	-39.6491E-3	39.9534E-12	-1.48089E+0	28.6620E-3
-287.402E-3	-18.7788E-12	-287.728E-3	-287.402E-3	-113.565E-3	39.9850E-12	-1.51534E+0	28.9490E-3
-299.213E-3	-19.6086E-12	-299.517E-3	-299.213E-3	-43.6392E-3	40.0139E-12	-1.52075E+0	26.3292E-3
-311.024E-3	-20.4497E-12	-311.342E-3	-311.024E-3	29.1277E-3	40.0519E-12	-1.50580E+0	24.9939E-3
-322.835E-3	-21.2523E-12	-323.141E-3	-322.835E-3	-64.9825E-3	40.0555E-12	-1.54531E+0	28.5285E-3
-334.646E-3	-21.7870E-12	-334.916E-3	-334.646E-3	2.51245E-3	40.0433E-12	-1.54501E+0	23.8789E-3
-346.457E-3	-22.3368E-12	-346.731E-3	-346.457E-3	-90.6601E-3	39.9730E-12	-1.57642E+0	29.4578E-3
-358.268E-3	-22.9363E-12	-358.572E-3	-358.268E-3	-111.083E-3	39.9229E-12	-1.62022E+0	31.2234E-3
-370.079E-3	-23.4960E-12	-370.362E-3	-370.079E-3	90.1159E-3	40.0498E-12	-1.54611E+0	26.9993E-3
-381.890E-3	-24.5854E-12	-382.136E-3	-381.890E-3	-34.4014E-3	39.9940E-12	-1.61204E+0	26.9108E-3
-393.701E-3	-24.8003E-12	-394.011E-3	-393.701E-3	-93.9208E-3	39.9713E-12	-1.64758E+0	27.7118E-3
-405.512E-3	-25.8796E-12	-405.830E-3	-405.512E-3	60.2904E-3	40.0063E-12	-1.61085E+0	28.1010E-3
-417.323E-3	-26.3571E-12	-417.633E-3	-417.323E-3	-140.931E-3	39.9071E-12	-1.67193E+0	30.6461E-3
-429.134E-3	-27.3810E-12	-429.444E-3	-429.134E-3	-24.6529E-3	39.9997E-12	-1.66198E+0	28.2165E-3
-440.945E-3	-27.9129E-12	-441.238E-3	-440.945E-3	-106.230E-3	39.9662E-12	-1.67500E+0	26.6747E-3
-452.756E-3	-29.2330E-12	-453.042E-3	-452.756E-3	-121.177E-3	40.0940E-12	-1.70857E+0	24.8175E-3
-464.567E-3	-29.5433E-12	-464.865E-3	-464.567E-3	-121.330E-3	39.9808E-12	-1.72865E+0	27.0959E-3
-476.378E-3	-30.4018E-12	-476.690E-3	-476.378E-3	-68.8253E-3	39.9476E-12	-1.73976E+0	26.9696E-3
-488.189E-3	-31.3956E-12	-488.417E-3	-488.189E-3	-116.118E-3	40.0102E-12	-1.76607E+0	26.5962E-3
-500.000E-3	-32.7279E-12	-500.262E-3	-500.000E-3	41.2863E-3	40.0875E-12	-1.72099E+0	23.6456E-3
