Experiment	bias spectroscopy	
Date	30.11.2015 16:03:26	
User		
X (m)	28.4197E-9	
Y (m)	-165.461E-9	
Z (m)	-3.75305E-9	
Z offset (m)	0E+0	
Settling time (s)	30E-3	
Integration time (s)	200E-3	
Z-Ctrl hold	TRUE	
Final Z (m)	-3.75305E-9	
Filter type	None	
Order		
Cutoff frq		
Current (A)	11.7077E-12	
Z (m)	-3.75305E-9	
Phase (deg)	-67.2027E-3	
Amplitude (m)	39.8948E-12	
Frequency Shift (Hz)	-680.503E-3	
Excitation (V)	31.1591E-3	

[DATA]
Bias calc (V)	Current (A)	Applied Voltage measured (V)	Bias (V)	Phase (deg)	Amplitude (m)	Frequency Shift (Hz)	Excitation (V)
1.00000E+0	11.8331E-12	999.325E-3	1.00000E+0	13.7171E-3	40.1027E-12	-685.958E-3	23.0347E-3
988.189E-3	11.6945E-12	987.533E-3	988.189E-3	-23.5594E-3	40.0050E-12	-695.239E-3	25.6607E-3
976.378E-3	11.4502E-12	975.764E-3	976.378E-3	92.7281E-3	39.9418E-12	-632.788E-3	27.3133E-3
964.567E-3	11.4137E-12	963.899E-3	964.567E-3	18.2241E-3	39.9972E-12	-653.574E-3	24.5947E-3
952.756E-3	11.1584E-12	952.141E-3	952.756E-3	10.7615E-3	40.0199E-12	-638.414E-3	24.7108E-3
940.945E-3	10.8651E-12	940.305E-3	940.945E-3	122.179E-3	39.9816E-12	-607.884E-3	28.3375E-3
929.134E-3	10.9361E-12	928.491E-3	929.134E-3	264.696E-3	40.0178E-12	-519.392E-3	24.8640E-3
917.323E-3	10.7182E-12	916.741E-3	917.323E-3	-161.762E-3	39.9806E-12	-665.541E-3	28.1850E-3
905.512E-3	10.4889E-12	904.880E-3	905.512E-3	-58.4304E-3	39.9915E-12	-649.646E-3	27.2385E-3
893.701E-3	10.3067E-12	893.120E-3	893.701E-3	124.226E-3	40.0204E-12	-610.128E-3	26.8718E-3
881.890E-3	10.2257E-12	881.274E-3	881.890E-3	-17.5028E-3	40.0613E-12	-626.044E-3	22.8101E-3
870.079E-3	9.89616E-12	869.474E-3	870.079E-3	119.047E-3	39.9002E-12	-588.361E-3	26.7440E-3
858.268E-3	9.97165E-12	857.642E-3	858.268E-3	-90.8219E-3	40.0556E-12	-627.213E-3	24.4257E-3
846.457E-3	9.66687E-12	845.805E-3	846.457E-3	-45.7504E-3	39.9950E-12	-625.775E-3	23.8888E-3
834.646E-3	9.47261E-12	834.032E-3	834.646E-3	155.800E-3	39.9427E-12	-553.742E-3	28.9012E-3
822.835E-3	9.20979E-12	822.218E-3	822.835E-3	-20.3725E-3	39.9321E-12	-572.839E-3	24.9469E-3
811.024E-3	9.32542E-12	810.395E-3	811.024E-3	-76.9081E-3	40.1471E-12	-582.435E-3	22.2740E-3
799.213E-3	9.17271E-12	798.626E-3	799.213E-3	-21.0540E-3	39.9675E-12	-573.521E-3	24.6217E-3
787.402E-3	8.90727E-12	786.794E-3	787.402E-3	7.92191E-3	39.9284E-12	-565.550E-3	25.0046E-3
775.591E-3	8.99348E-12	775.012E-3	775.591E-3	1.46619E-3	40.0792E-12	-578.093E-3	23.4712E-3
763.780E-3	8.72890E-12	763.192E-3	763.780E-3	58.3308E-3	40.0050E-12	-538.661E-3	25.1568E-3
751.969E-3	8.58775E-12	751.417E-3	751.969E-3	7.08042E-3	40.0368E-12	-553.990E-3	23.2584E-3
740.157E-3	8.32952E-12	739.616E-3	740.157E-3	51.3053E-3	39.8144E-12	-536.187E-3	31.2291E-3
728.346E-3	8.35531E-12	727.773E-3	728.346E-3	-90.7425E-3	40.0311E-12	-580.262E-3	26.0988E-3
716.535E-3	8.18842E-12	715.996E-3	716.535E-3	84.0061E-3	40.0039E-12	-518.458E-3	26.7546E-3
704.724E-3	8.07689E-12	704.301E-3	704.724E-3	-44.1200E-3	40.0772E-12	-552.216E-3	26.0072E-3
692.913E-3	7.89253E-12	692.498E-3	692.913E-3	-28.2257E-3	39.9473E-12	-568.467E-3	26.5906E-3
681.102E-3	7.67224E-12	680.719E-3	681.102E-3	-45.4997E-3	39.9730E-12	-561.230E-3	24.1752E-3
669.291E-3	7.57793E-12	668.903E-3	669.291E-3	-646.507E-6	39.9356E-12	-568.425E-3	26.9976E-3
657.480E-3	7.42260E-12	657.073E-3	657.480E-3	-36.7275E-3	39.9424E-12	-586.536E-3	27.3511E-3
645.669E-3	7.30429E-12	645.264E-3	645.669E-3	102.143E-3	40.0261E-12	-517.855E-3	24.0063E-3
633.858E-3	7.16482E-12	633.456E-3	633.858E-3	65.3999E-3	39.9600E-12	-519.806E-3	27.2168E-3
622.047E-3	7.00926E-12	621.658E-3	622.047E-3	-30.4683E-3	39.9889E-12	-527.812E-3	26.9988E-3
610.236E-3	6.85663E-12	609.886E-3	610.236E-3	19.8849E-3	40.0089E-12	-531.016E-3	26.2440E-3
598.425E-3	6.67091E-12	598.085E-3	598.425E-3	194.537E-3	39.9797E-12	-470.518E-3	28.2289E-3
586.614E-3	6.56551E-12	586.278E-3	586.614E-3	-44.4766E-3	39.9948E-12	-526.333E-3	25.1432E-3
574.803E-3	6.47167E-12	574.452E-3	574.803E-3	-2.13616E-3	40.0244E-12	-535.852E-3	22.7920E-3
562.992E-3	6.29159E-12	562.675E-3	562.992E-3	58.4285E-3	40.0128E-12	-499.534E-3	28.3825E-3
551.181E-3	6.25818E-12	550.858E-3	551.181E-3	49.4514E-3	40.0101E-12	-513.856E-3	26.4784E-3
539.370E-3	6.07670E-12	538.988E-3	539.370E-3	83.7003E-3	40.0149E-12	-482.644E-3	23.9803E-3
527.559E-3	5.89355E-12	527.200E-3	527.559E-3	17.8698E-3	39.9395E-12	-489.676E-3	29.9675E-3
515.748E-3	5.76915E-12	515.369E-3	515.748E-3	35.2145E-3	40.0376E-12	-476.010E-3	26.2910E-3
503.937E-3	5.64625E-12	503.586E-3	503.937E-3	20.4478E-3	39.9880E-12	-491.319E-3	25.9912E-3
492.126E-3	5.51199E-12	491.763E-3	492.126E-3	7.23281E-3	39.9765E-12	-511.781E-3	27.4043E-3
480.315E-3	5.33381E-12	479.950E-3	480.315E-3	-69.8599E-3	39.9498E-12	-513.012E-3	27.2514E-3
468.504E-3	5.32118E-12	468.157E-3	468.504E-3	-94.1281E-3	40.0382E-12	-538.651E-3	25.2989E-3
456.693E-3	5.18616E-12	456.349E-3	456.693E-3	35.6115E-3	40.0027E-12	-513.819E-3	26.9205E-3
444.882E-3	5.08412E-12	444.588E-3	444.882E-3	105.104E-3	39.9881E-12	-487.513E-3	26.8301E-3
433.071E-3	4.87969E-12	432.756E-3	433.071E-3	87.8854E-3	39.9505E-12	-485.883E-3	27.9825E-3
421.260E-3	4.78209E-12	420.941E-3	421.260E-3	-44.8485E-3	40.0577E-12	-506.459E-3	24.8372E-3
409.449E-3	4.59213E-12	409.161E-3	409.449E-3	-7.47513E-3	39.9321E-12	-518.262E-3	28.6783E-3
397.638E-3	4.56165E-12	397.314E-3	397.638E-3	-87.2590E-3	40.1099E-12	-535.814E-3	22.4759E-3
385.827E-3	4.35896E-12	385.553E-3	385.827E-3	-56.3985E-3	40.0472E-12	-536.855E-3	24.5857E-3
374.016E-3	4.19314E-12	373.702E-3	374.016E-3	-14.3809E-3	40.0475E-12	-518.046E-3	26.7450E-3
362.205E-3	4.02195E-12	361.906E-3	362.205E-3	37.6883E-3	39.9199E-12	-492.551E-3	27.8350E-3
350.394E-3	3.92457E-12	350.148E-3	350.394E-3	96.2223E-3	40.0133E-12	-458.418E-3	26.4463E-3
338.583E-3	3.76809E-12	338.297E-3	338.583E-3	-35.9881E-3	39.9826E-12	-499.895E-3	25.6351E-3
326.772E-3	3.63736E-12	326.507E-3	326.772E-3	-112.254E-3	39.9386E-12	-568.603E-3	28.8317E-3
314.961E-3	3.49142E-12	314.677E-3	314.961E-3	23.3421E-3	40.0386E-12	-529.433E-3	28.4853E-3
303.150E-3	3.39828E-12	302.849E-3	303.150E-3	144.014E-3	40.0866E-12	-487.143E-3	25.4210E-3
291.339E-3	3.20873E-12	291.104E-3	291.339E-3	-116.235E-3	39.9355E-12	-551.408E-3	27.6523E-3
279.528E-3	3.12282E-12	279.275E-3	279.528E-3	12.7332E-3	40.0408E-12	-541.663E-3	27.0480E-3
267.717E-3	2.92014E-12	267.457E-3	267.717E-3	53.6546E-3	40.0183E-12	-498.168E-3	27.4160E-3
255.906E-3	2.82527E-12	255.633E-3	255.906E-3	121.308E-3	40.0292E-12	-458.449E-3	27.1869E-3
244.094E-3	2.64844E-12	243.859E-3	244.094E-3	-96.1287E-3	40.0122E-12	-518.943E-3	28.1298E-3
232.283E-3	2.49478E-12	232.008E-3	232.283E-3	-9.35623E-3	40.0131E-12	-510.102E-3	28.1042E-3
220.472E-3	2.32862E-12	220.172E-3	220.472E-3	63.5762E-3	39.9802E-12	-504.925E-3	27.6636E-3
208.661E-3	2.16455E-12	208.404E-3	208.661E-3	-84.1267E-3	39.9982E-12	-537.260E-3	28.2916E-3
196.850E-3	2.02809E-12	196.561E-3	196.850E-3	-61.1814E-3	40.0091E-12	-566.301E-3	24.9698E-3
185.039E-3	1.89639E-12	184.800E-3	185.039E-3	71.8249E-3	39.9642E-12	-529.036E-3	26.8904E-3
173.228E-3	1.77375E-12	172.987E-3	173.228E-3	99.9843E-3	40.0024E-12	-507.787E-3	25.7449E-3
161.417E-3	1.60182E-12	161.156E-3	161.417E-3	-37.8724E-3	40.0193E-12	-547.258E-3	24.9831E-3
149.606E-3	1.47885E-12	149.332E-3	149.606E-3	-68.8164E-3	40.0112E-12	-539.571E-3	25.1758E-3
137.795E-3	1.33526E-12	137.537E-3	137.795E-3	65.9465E-3	39.9825E-12	-495.452E-3	24.9082E-3
125.984E-3	1.22494E-12	125.769E-3	125.984E-3	67.7667E-3	40.0028E-12	-534.569E-3	25.4434E-3
114.173E-3	1.04354E-12	113.935E-3	114.173E-3	-25.2968E-3	39.9696E-12	-541.451E-3	25.2087E-3
102.362E-3	936.107E-15	102.116E-3	102.362E-3	-75.5395E-3	39.9282E-12	-560.440E-3	29.2971E-3
90.5512E-3	797.714E-15	90.3102E-3	90.5512E-3	26.4150E-3	40.0430E-12	-545.266E-3	25.2494E-3
78.7402E-3	660.221E-15	78.4833E-3	78.7402E-3	27.2607E-3	40.0076E-12	-541.292E-3	25.7916E-3
66.9291E-3	515.908E-15	66.6104E-3	66.9291E-3	-143.952E-3	40.0579E-12	-603.740E-3	23.5458E-3
55.1181E-3	404.923E-15	54.8410E-3	55.1181E-3	147.044E-3	40.0420E-12	-533.008E-3	26.7821E-3
43.3071E-3	276.246E-15	43.0191E-3	43.3071E-3	-5.47051E-3	39.9695E-12	-559.982E-3	25.7536E-3
31.4961E-3	162.251E-15	31.1956E-3	31.4961E-3	94.0144E-3	39.9378E-12	-524.517E-3	29.3319E-3
19.6850E-3	54.0915E-15	19.3992E-3	19.6850E-3	-129.601E-3	40.0063E-12	-612.768E-3	24.6246E-3
7.87402E-3	-62.5467E-15	7.54283E-3	7.87402E-3	-7.67573E-3	40.0331E-12	-605.175E-3	26.5053E-3
-3.93701E-3	-162.082E-15	-4.34143E-3	-3.93701E-3	36.5970E-3	39.8757E-12	-565.081E-3	28.5554E-3
-15.7480E-3	-272.667E-15	-16.1290E-3	-15.7480E-3	-4.24378E-3	40.0223E-12	-558.711E-3	24.1303E-3
-27.5591E-3	-389.858E-15	-27.9392E-3	-27.5591E-3	49.9867E-3	39.9982E-12	-580.089E-3	24.8045E-3
-39.3701E-3	-504.967E-15	-39.7110E-3	-39.3701E-3	-32.4313E-3	40.0218E-12	-619.172E-3	26.1317E-3
-51.1811E-3	-597.701E-15	-51.5595E-3	-51.1811E-3	-6.72869E-3	39.9832E-12	-596.270E-3	25.3793E-3
-62.9921E-3	-710.062E-15	-63.3365E-3	-62.9921E-3	-18.0622E-3	39.9754E-12	-609.178E-3	26.9290E-3
-74.8032E-3	-776.166E-15	-75.1780E-3	-74.8032E-3	38.0512E-3	39.9658E-12	-604.069E-3	29.3537E-3
-86.6142E-3	-807.530E-15	-87.0272E-3	-86.6142E-3	10.0895E-3	39.9962E-12	-586.336E-3	24.8171E-3
-98.4252E-3	-835.088E-15	-98.8030E-3	-98.4252E-3	-194.340E-3	39.9431E-12	-657.531E-3	27.5850E-3
-110.236E-3	-885.176E-15	-110.658E-3	-110.236E-3	-80.6894E-3	40.0796E-12	-648.894E-3	24.3824E-3
-122.047E-3	-909.694E-15	-122.393E-3	-122.047E-3	-84.1684E-3	40.0113E-12	-656.133E-3	23.6121E-3
-133.858E-3	-937.885E-15	-134.243E-3	-133.858E-3	187.283E-3	40.0470E-12	-585.389E-3	21.8540E-3
-145.669E-3	-968.363E-15	-146.040E-3	-145.669E-3	-136.353E-3	39.8843E-12	-680.979E-3	27.6236E-3
-157.480E-3	-997.674E-15	-157.817E-3	-157.480E-3	-85.9624E-3	39.9848E-12	-709.315E-3	27.3580E-3
-169.291E-3	-1.02952E-12	-169.699E-3	-169.291E-3	16.0665E-3	39.9304E-12	-667.585E-3	30.2607E-3
-181.102E-3	-1.06098E-12	-181.438E-3	-181.102E-3	-83.8298E-3	39.9997E-12	-691.223E-3	30.0883E-3
-192.913E-3	-1.10107E-12	-193.249E-3	-192.913E-3	26.4362E-3	40.0357E-12	-654.915E-3	28.1533E-3
-204.724E-3	-1.11959E-12	-205.084E-3	-204.724E-3	-11.9623E-3	39.9876E-12	-686.963E-3	27.8524E-3
-216.535E-3	-1.16922E-12	-216.876E-3	-216.535E-3	71.8898E-3	40.0315E-12	-651.642E-3	23.8792E-3
-228.346E-3	-1.22016E-12	-228.697E-3	-228.346E-3	-99.6285E-3	39.9858E-12	-707.800E-3	26.5217E-3
-240.157E-3	-1.26896E-12	-240.500E-3	-240.157E-3	-84.6344E-3	40.0538E-12	-705.427E-3	26.6809E-3
-251.969E-3	-1.28193E-12	-252.318E-3	-251.969E-3	-67.3793E-3	39.9732E-12	-713.610E-3	26.3048E-3
-263.780E-3	-1.33644E-12	-264.083E-3	-263.780E-3	43.5922E-3	40.0637E-12	-695.107E-3	24.1046E-3
-275.591E-3	-1.35526E-12	-275.889E-3	-275.591E-3	92.2607E-3	39.9980E-12	-676.497E-3	27.4870E-3
-287.402E-3	-1.39815E-12	-287.732E-3	-287.402E-3	-159.650E-3	39.8923E-12	-743.823E-3	29.0358E-3
-299.213E-3	-1.46004E-12	-299.520E-3	-299.213E-3	-199.312E-3	40.0196E-12	-809.687E-3	27.1504E-3
-311.024E-3	-1.49097E-12	-311.354E-3	-311.024E-3	21.2178E-3	40.0091E-12	-764.190E-3	28.4780E-3
-322.835E-3	-1.56300E-12	-323.149E-3	-322.835E-3	96.2321E-3	40.0039E-12	-754.199E-3	26.5410E-3
-334.646E-3	-1.58540E-12	-334.933E-3	-334.646E-3	68.4254E-3	40.0138E-12	-743.096E-3	26.2789E-3
-346.457E-3	-1.65160E-12	-346.745E-3	-346.457E-3	-48.0413E-3	40.0159E-12	-791.722E-3	24.6116E-3
-358.268E-3	-1.69291E-12	-358.581E-3	-358.268E-3	63.8534E-3	40.0000E-12	-748.284E-3	26.6603E-3
-370.079E-3	-1.74170E-12	-370.382E-3	-370.079E-3	-9.77239E-3	40.0369E-12	-788.653E-3	25.8539E-3
-381.890E-3	-1.80344E-12	-382.154E-3	-381.890E-3	-101.019E-3	40.0314E-12	-836.738E-3	23.9456E-3
-393.701E-3	-1.83656E-12	-394.028E-3	-393.701E-3	135.416E-3	39.9934E-12	-755.421E-3	26.0856E-3
-405.512E-3	-1.88025E-12	-405.839E-3	-405.512E-3	-85.2779E-3	40.0904E-12	-832.359E-3	25.3075E-3
-417.323E-3	-1.91165E-12	-417.643E-3	-417.323E-3	-81.0512E-3	40.0362E-12	-847.991E-3	26.6571E-3
-429.134E-3	-1.96567E-12	-429.447E-3	-429.134E-3	54.6039E-3	40.0850E-12	-827.366E-3	25.4732E-3
-440.945E-3	-1.94998E-12	-441.257E-3	-440.945E-3	-29.3048E-3	39.9600E-12	-842.372E-3	23.9770E-3
-452.756E-3	-2.00584E-12	-453.055E-3	-452.756E-3	-131.431E-3	40.0234E-12	-886.059E-3	24.4032E-3
-464.567E-3	-2.02501E-12	-464.879E-3	-464.567E-3	-4.09672E-3	40.0228E-12	-850.843E-3	24.7912E-3
-476.378E-3	-2.00791E-12	-476.695E-3	-476.378E-3	-39.5553E-3	39.8670E-12	-882.508E-3	26.2103E-3
-488.189E-3	-2.06447E-12	-488.418E-3	-488.189E-3	-22.5208E-3	40.0404E-12	-897.483E-3	26.1450E-3
-500.000E-3	-2.09747E-12	-500.261E-3	-500.000E-3	16.1191E-3	40.0281E-12	-902.133E-3	27.7641E-3
