Experiment	bias spectroscopy	
Date	30.11.2015 16:05:10	
User		
X (m)	28.6028E-9	
Y (m)	-165.993E-9	
Z (m)	-3.75305E-9	
Z offset (m)	0E+0	
Settling time (s)	30E-3	
Integration time (s)	200E-3	
Z-Ctrl hold	TRUE	
Final Z (m)	-3.75305E-9	
Filter type	None	
Order		
Cutoff frq		
Current (A)	24.7303E-12	
Z (m)	-3.75305E-9	
Phase (deg)	492.17E-3	
Amplitude (m)	40.1723E-12	
Frequency Shift (Hz)	-508.649E-3	
Excitation (V)	16.5602E-3	

[DATA]
Bias calc (V)	Current (A)	Applied Voltage measured (V)	Bias (V)	Phase (deg)	Amplitude (m)	Frequency Shift (Hz)	Excitation (V)
1.00000E+0	24.1438E-12	999.320E-3	1.00000E+0	-28.6321E-3	40.0063E-12	-677.513E-3	25.3587E-3
988.189E-3	23.7754E-12	987.524E-3	988.189E-3	104.688E-3	40.0205E-12	-634.764E-3	22.9875E-3
976.378E-3	23.1056E-12	975.767E-3	976.378E-3	-116.220E-3	40.0095E-12	-693.692E-3	26.0267E-3
964.567E-3	22.0548E-12	963.907E-3	964.567E-3	32.3036E-3	39.8833E-12	-665.497E-3	28.9759E-3
952.756E-3	21.9615E-12	952.150E-3	952.756E-3	-21.0392E-3	40.0396E-12	-645.827E-3	26.5146E-3
940.945E-3	21.5097E-12	940.309E-3	940.945E-3	-90.5756E-3	40.1025E-12	-690.585E-3	22.6172E-3
929.134E-3	21.2439E-12	928.483E-3	929.134E-3	-85.0267E-3	40.0283E-12	-677.960E-3	25.4873E-3
917.323E-3	20.5986E-12	916.732E-3	917.323E-3	43.5586E-3	39.9980E-12	-643.962E-3	22.9933E-3
905.512E-3	20.1386E-12	904.871E-3	905.512E-3	-120.040E-3	39.9896E-12	-690.561E-3	25.9382E-3
893.701E-3	19.6104E-12	893.114E-3	893.701E-3	110.802E-3	39.9636E-12	-608.265E-3	26.2216E-3
881.890E-3	19.2834E-12	881.269E-3	881.890E-3	-105.405E-3	40.0225E-12	-689.606E-3	23.6661E-3
870.079E-3	19.0914E-12	869.474E-3	870.079E-3	180.788E-3	40.1000E-12	-590.440E-3	24.7743E-3
858.268E-3	18.6642E-12	857.653E-3	858.268E-3	92.9351E-3	39.9978E-12	-578.438E-3	23.2611E-3
846.457E-3	18.1399E-12	845.825E-3	846.457E-3	31.2820E-3	40.0217E-12	-592.674E-3	25.1906E-3
834.646E-3	17.7633E-12	834.043E-3	834.646E-3	-113.134E-3	40.0060E-12	-642.611E-3	25.6643E-3
822.835E-3	17.5571E-12	822.231E-3	822.835E-3	-52.7887E-3	40.0862E-12	-624.432E-3	23.6980E-3
811.024E-3	16.7663E-12	810.407E-3	811.024E-3	90.5123E-3	39.9637E-12	-593.676E-3	25.4395E-3
799.213E-3	16.3703E-12	798.633E-3	799.213E-3	144.556E-3	39.8773E-12	-557.793E-3	26.6712E-3
787.402E-3	16.5191E-12	786.809E-3	787.402E-3	19.1228E-3	40.0211E-12	-575.984E-3	25.5736E-3
775.591E-3	15.9309E-12	775.005E-3	775.591E-3	-78.8315E-3	39.9528E-12	-634.463E-3	28.3396E-3
763.780E-3	15.5521E-12	763.185E-3	763.780E-3	114.794E-3	39.9526E-12	-559.528E-3	30.8044E-3
751.969E-3	15.4352E-12	751.413E-3	751.969E-3	-223.278E-3	40.0484E-12	-675.523E-3	24.7574E-3
740.157E-3	15.0634E-12	739.614E-3	740.157E-3	-80.5723E-3	40.0275E-12	-656.375E-3	21.1883E-3
728.346E-3	14.8820E-12	727.766E-3	728.346E-3	77.0145E-3	39.9726E-12	-593.921E-3	26.9446E-3
716.535E-3	14.3287E-12	715.983E-3	716.535E-3	144.732E-3	40.0191E-12	-548.557E-3	25.9986E-3
704.724E-3	14.1737E-12	704.290E-3	704.724E-3	46.6116E-3	40.0820E-12	-553.835E-3	23.4952E-3
692.913E-3	13.7935E-12	692.496E-3	692.913E-3	-27.8590E-3	39.9997E-12	-584.810E-3	25.2946E-3
681.102E-3	13.6059E-12	680.714E-3	681.102E-3	57.8765E-3	40.0481E-12	-553.945E-3	24.5995E-3
669.291E-3	13.1402E-12	668.903E-3	669.291E-3	-101.602E-3	40.0408E-12	-582.691E-3	24.8591E-3
657.480E-3	12.7230E-12	657.069E-3	657.480E-3	3.10221E-3	39.9052E-12	-569.465E-3	26.3225E-3
645.669E-3	12.5585E-12	645.261E-3	645.669E-3	-46.0434E-3	39.9644E-12	-568.503E-3	25.4861E-3
633.858E-3	12.4470E-12	633.453E-3	633.858E-3	146.175E-3	40.0454E-12	-499.232E-3	25.1025E-3
622.047E-3	12.0740E-12	621.645E-3	622.047E-3	-91.8050E-3	40.0008E-12	-556.927E-3	26.4126E-3
610.236E-3	11.8725E-12	609.887E-3	610.236E-3	66.0387E-3	40.1103E-12	-518.729E-3	22.8757E-3
598.425E-3	11.3633E-12	598.071E-3	598.425E-3	12.4347E-3	39.9911E-12	-536.175E-3	24.4038E-3
586.614E-3	11.1103E-12	586.270E-3	586.614E-3	-38.1231E-3	39.9576E-12	-547.487E-3	29.5054E-3
574.803E-3	10.8202E-12	574.445E-3	574.803E-3	-99.5606E-3	39.9972E-12	-581.307E-3	24.6979E-3
562.992E-3	10.5731E-12	562.672E-3	562.992E-3	-105.703E-3	40.0153E-12	-586.456E-3	25.0355E-3
551.181E-3	10.3146E-12	550.858E-3	551.181E-3	95.6131E-3	39.9549E-12	-524.410E-3	26.0384E-3
539.370E-3	10.0499E-12	538.990E-3	539.370E-3	-33.1691E-3	39.9734E-12	-550.384E-3	27.7554E-3
527.559E-3	9.76670E-12	527.207E-3	527.559E-3	-19.5353E-3	39.9938E-12	-534.051E-3	27.3394E-3
515.748E-3	9.51360E-12	515.378E-3	515.748E-3	-74.7561E-3	40.0476E-12	-572.482E-3	25.7691E-3
503.937E-3	9.36412E-12	503.593E-3	503.937E-3	31.1639E-3	39.9866E-12	-537.159E-3	28.6326E-3
492.126E-3	9.15654E-12	491.771E-3	492.126E-3	48.6483E-3	40.0157E-12	-523.149E-3	24.6430E-3
480.315E-3	8.74119E-12	479.953E-3	480.315E-3	52.7371E-3	40.0430E-12	-518.297E-3	24.6303E-3
468.504E-3	8.42964E-12	468.154E-3	468.504E-3	-82.1642E-3	39.9562E-12	-553.193E-3	29.3563E-3
456.693E-3	8.28488E-12	456.348E-3	456.693E-3	49.3419E-3	40.0530E-12	-501.158E-3	23.2962E-3
444.882E-3	7.95380E-12	444.577E-3	444.882E-3	47.7854E-3	39.9550E-12	-508.026E-3	27.0678E-3
433.071E-3	7.80639E-12	432.745E-3	433.071E-3	23.5584E-3	40.0136E-12	-506.352E-3	24.1680E-3
421.260E-3	7.51248E-12	420.931E-3	421.260E-3	-96.8232E-3	39.9651E-12	-527.805E-3	27.7708E-3
409.449E-3	7.28758E-12	409.148E-3	409.449E-3	47.3338E-3	39.9952E-12	-502.178E-3	24.8933E-3
397.638E-3	6.99477E-12	397.299E-3	397.638E-3	-101.775E-3	39.9724E-12	-558.286E-3	26.8951E-3
385.827E-3	6.70350E-12	385.539E-3	385.827E-3	26.2359E-3	39.9629E-12	-533.216E-3	27.7686E-3
374.016E-3	6.50993E-12	373.692E-3	374.016E-3	-122.670E-3	40.0569E-12	-586.164E-3	28.6470E-3
362.205E-3	6.33427E-12	361.898E-3	362.205E-3	98.4103E-3	40.0625E-12	-534.044E-3	26.2021E-3
350.394E-3	6.06424E-12	350.157E-3	350.394E-3	-55.2387E-3	39.9382E-12	-568.259E-3	25.8334E-3
338.583E-3	5.86309E-12	338.298E-3	338.583E-3	76.6963E-3	40.0002E-12	-514.583E-3	24.3371E-3
326.772E-3	5.59545E-12	326.504E-3	326.772E-3	-116.059E-3	40.0361E-12	-580.228E-3	25.6931E-3
314.961E-3	5.40345E-12	314.673E-3	314.961E-3	149.051E-3	40.0333E-12	-503.744E-3	23.6175E-3
303.150E-3	5.09188E-12	302.854E-3	303.150E-3	79.8747E-3	39.9655E-12	-521.823E-3	24.8706E-3
291.339E-3	4.82503E-12	291.097E-3	291.339E-3	-38.4605E-3	39.9357E-12	-550.920E-3	26.8473E-3
279.528E-3	4.67644E-12	279.269E-3	279.528E-3	-55.1266E-3	40.0322E-12	-557.209E-3	27.7612E-3
267.717E-3	4.48913E-12	267.452E-3	267.717E-3	-163.400E-3	40.0366E-12	-620.455E-3	26.4458E-3
255.906E-3	4.17276E-12	255.620E-3	255.906E-3	-30.2027E-3	40.0084E-12	-591.551E-3	29.5819E-3
244.094E-3	4.04510E-12	243.857E-3	244.094E-3	-105.504E-3	40.0544E-12	-626.128E-3	25.1105E-3
232.283E-3	3.79329E-12	231.997E-3	232.283E-3	162.917E-3	39.9644E-12	-525.278E-3	24.2896E-3
220.472E-3	3.54027E-12	220.169E-3	220.472E-3	11.7986E-3	40.0113E-12	-543.937E-3	26.0569E-3
208.661E-3	3.32323E-12	208.393E-3	208.661E-3	-181.310E-3	40.0502E-12	-603.504E-3	24.1703E-3
196.850E-3	3.10994E-12	196.560E-3	196.850E-3	40.5718E-3	40.0227E-12	-567.073E-3	23.2894E-3
185.039E-3	2.87585E-12	184.791E-3	185.039E-3	-10.7760E-3	39.9770E-12	-563.692E-3	28.0518E-3
173.228E-3	2.66877E-12	172.988E-3	173.228E-3	-42.9374E-3	39.9381E-12	-585.863E-3	28.1425E-3
161.417E-3	2.43285E-12	161.153E-3	161.417E-3	-14.0372E-3	40.0183E-12	-552.423E-3	29.2680E-3
149.606E-3	2.20296E-12	149.327E-3	149.606E-3	53.1991E-3	40.0312E-12	-539.437E-3	26.4374E-3
137.795E-3	1.95603E-12	137.541E-3	137.795E-3	128.569E-3	39.9015E-12	-519.362E-3	28.9141E-3
125.984E-3	1.76113E-12	125.775E-3	125.984E-3	-195.728E-3	39.9974E-12	-622.681E-3	26.4914E-3
114.173E-3	1.58030E-12	113.938E-3	114.173E-3	-31.6252E-3	40.0545E-12	-599.167E-3	26.3620E-3
102.362E-3	1.37795E-12	102.134E-3	102.362E-3	2.00106E-3	40.0346E-12	-580.371E-3	24.6295E-3
90.5512E-3	1.19242E-12	90.3310E-3	90.5512E-3	10.6225E-3	39.9780E-12	-609.751E-3	25.1247E-3
78.7402E-3	995.119E-15	78.4986E-3	78.7402E-3	24.4411E-3	39.9739E-12	-586.345E-3	27.0398E-3
66.9291E-3	824.509E-15	66.6236E-3	66.9291E-3	10.0480E-3	40.0178E-12	-610.148E-3	25.7830E-3
55.1181E-3	646.456E-15	54.8482E-3	55.1181E-3	101.988E-3	40.0055E-12	-556.194E-3	26.9049E-3
43.3071E-3	453.456E-15	43.0243E-3	43.3071E-3	-190.454E-3	40.0461E-12	-651.051E-3	25.2247E-3
31.4961E-3	297.590E-15	31.1880E-3	31.4961E-3	-3.78383E-3	39.9856E-12	-644.704E-3	26.7584E-3
19.6850E-3	125.060E-15	19.3942E-3	19.6850E-3	-108.374E-3	40.0385E-12	-676.583E-3	25.0674E-3
7.87402E-3	-34.1002E-15	7.53946E-3	7.87402E-3	65.4425E-3	40.0468E-12	-624.975E-3	28.5729E-3
-3.93701E-3	-170.969E-15	-4.35013E-3	-3.93701E-3	-11.5369E-3	39.9665E-12	-623.973E-3	28.4712E-3
-15.7480E-3	-327.139E-15	-16.1287E-3	-15.7480E-3	-2.89165E-3	39.9497E-12	-616.659E-3	28.3685E-3
-27.5591E-3	-484.274E-15	-27.9411E-3	-27.5591E-3	-6.32470E-3	40.0066E-12	-605.053E-3	23.9429E-3
-39.3701E-3	-621.118E-15	-39.7026E-3	-39.3701E-3	-112.586E-3	39.9930E-12	-659.375E-3	26.7310E-3
-51.1811E-3	-769.430E-15	-51.5578E-3	-51.1811E-3	-43.7589E-3	39.9706E-12	-658.671E-3	24.5716E-3
-62.9921E-3	-937.539E-15	-63.3268E-3	-62.9921E-3	50.7613E-3	39.9893E-12	-635.384E-3	26.8922E-3
-74.8032E-3	-1.02368E-12	-75.1639E-3	-74.8032E-3	-49.4122E-3	40.0020E-12	-676.442E-3	25.7038E-3
-86.6142E-3	-1.07303E-12	-87.0204E-3	-86.6142E-3	15.8035E-3	39.9543E-12	-647.294E-3	26.8892E-3
-98.4252E-3	-1.13496E-12	-98.7960E-3	-98.4252E-3	-77.3985E-3	39.9813E-12	-690.314E-3	25.5742E-3
-110.236E-3	-1.19151E-12	-110.649E-3	-110.236E-3	-55.2376E-3	39.9495E-12	-694.070E-3	28.4407E-3
-122.047E-3	-1.25333E-12	-122.404E-3	-122.047E-3	36.9289E-3	40.0195E-12	-672.765E-3	28.7070E-3
-133.858E-3	-1.34352E-12	-134.252E-3	-133.858E-3	33.0177E-3	40.0234E-12	-659.037E-3	26.7934E-3
-145.669E-3	-1.35460E-12	-146.054E-3	-145.669E-3	81.2307E-3	39.9945E-12	-654.637E-3	24.4133E-3
-157.480E-3	-1.40312E-12	-157.822E-3	-157.480E-3	-20.5736E-3	39.9603E-12	-690.722E-3	28.7456E-3
-169.291E-3	-1.45181E-12	-169.694E-3	-169.291E-3	-41.2169E-3	39.9373E-12	-706.578E-3	27.9203E-3
-181.102E-3	-1.53093E-12	-181.439E-3	-181.102E-3	121.909E-3	40.0380E-12	-644.913E-3	27.6143E-3
-192.913E-3	-1.59594E-12	-193.245E-3	-192.913E-3	-60.1730E-3	39.9275E-12	-694.153E-3	30.9876E-3
-204.724E-3	-1.65562E-12	-205.070E-3	-204.724E-3	-51.7728E-3	40.0888E-12	-729.682E-3	24.4099E-3
-216.535E-3	-1.72419E-12	-216.874E-3	-216.535E-3	5.21709E-3	39.9825E-12	-734.370E-3	26.8861E-3
-228.346E-3	-1.78813E-12	-228.691E-3	-228.346E-3	-22.6971E-3	39.9943E-12	-755.794E-3	25.8475E-3
-240.157E-3	-1.83507E-12	-240.494E-3	-240.157E-3	148.195E-3	39.9552E-12	-669.988E-3	25.5759E-3
-251.969E-3	-1.94480E-12	-252.318E-3	-251.969E-3	8.70750E-3	39.9850E-12	-721.031E-3	27.3642E-3
-263.780E-3	-1.96195E-12	-264.076E-3	-263.780E-3	35.8178E-3	39.9834E-12	-715.081E-3	26.0167E-3
-275.591E-3	-2.06858E-12	-275.875E-3	-275.591E-3	-342.939E-3	40.1134E-12	-860.657E-3	25.7433E-3
-287.402E-3	-2.11904E-12	-287.719E-3	-287.402E-3	178.138E-3	39.9695E-12	-710.420E-3	24.5572E-3
-299.213E-3	-2.20122E-12	-299.519E-3	-299.213E-3	-20.2578E-3	40.0007E-12	-762.062E-3	25.2761E-3
-311.024E-3	-2.28078E-12	-311.340E-3	-311.024E-3	73.3484E-3	39.9398E-12	-728.324E-3	29.2564E-3
-322.835E-3	-2.37486E-12	-323.150E-3	-322.835E-3	-159.686E-3	39.9892E-12	-840.218E-3	29.9920E-3
-334.646E-3	-2.44573E-12	-334.924E-3	-334.646E-3	39.7646E-3	39.9900E-12	-806.983E-3	29.6270E-3
-346.457E-3	-2.54921E-12	-346.739E-3	-346.457E-3	109.411E-3	39.9575E-12	-774.551E-3	29.2413E-3
-358.268E-3	-2.60657E-12	-358.585E-3	-358.268E-3	-25.2401E-3	40.0022E-12	-815.638E-3	25.5630E-3
-370.079E-3	-2.72454E-12	-370.374E-3	-370.079E-3	-62.2839E-3	39.9997E-12	-839.648E-3	28.9070E-3
-381.890E-3	-2.80472E-12	-382.134E-3	-381.890E-3	-164.623E-3	40.0478E-12	-887.692E-3	25.4501E-3
-393.701E-3	-2.85255E-12	-394.012E-3	-393.701E-3	71.9105E-3	39.9878E-12	-828.514E-3	27.1116E-3
-405.512E-3	-2.93324E-12	-405.823E-3	-405.512E-3	-147.987E-3	39.9554E-12	-893.810E-3	28.7968E-3
-417.323E-3	-2.99441E-12	-417.611E-3	-417.323E-3	-19.4301E-3	40.0756E-12	-883.565E-3	25.5553E-3
-429.134E-3	-3.09378E-12	-429.432E-3	-429.134E-3	-48.9021E-3	39.9953E-12	-888.842E-3	25.6053E-3
-440.945E-3	-3.14121E-12	-441.237E-3	-440.945E-3	53.6602E-3	40.0071E-12	-865.212E-3	24.9370E-3
-452.756E-3	-3.24500E-12	-453.033E-3	-452.756E-3	-113.083E-3	40.0608E-12	-910.459E-3	24.2294E-3
-464.567E-3	-3.30808E-12	-464.868E-3	-464.567E-3	21.3870E-3	39.9213E-12	-889.348E-3	28.0745E-3
-476.378E-3	-3.33623E-12	-476.679E-3	-476.378E-3	-34.7885E-3	39.9843E-12	-926.920E-3	28.9939E-3
-488.189E-3	-3.33645E-12	-488.419E-3	-488.189E-3	-505.574E-6	39.9853E-12	-903.020E-3	30.9738E-3
-500.000E-3	-3.43054E-12	-500.254E-3	-500.000E-3	-2.43160E-3	40.0347E-12	-910.989E-3	27.1897E-3
