Experiment	bias spectroscopy	
Date	30.11.2015 18:15:46	
User		
X (m)	28.3308E-9	
Y (m)	-165.976E-9	
Z (m)	-3.75578E-9	
Z offset (m)	0E+0	
Settling time (s)	30E-3	
Integration time (s)	200E-3	
Z-Ctrl hold	TRUE	
Final Z (m)	-3.75578E-9	
Filter type	None	
Order		
Cutoff frq		
Current (A)	34.6043E-12	
Z (m)	-3.75578E-9	
Phase (deg)	565.902E-3	
Amplitude (m)	40.5232E-12	
Frequency Shift (Hz)	-592.181E-3	
Excitation (V)	-239.436E-6	

[DATA]
Bias calc (V)	Current (A)	Applied Voltage measured (V)	Bias (V)	Phase (deg)	Amplitude (m)	Frequency Shift (Hz)	Excitation (V)
1.00000E+0	34.5357E-12	999.326E-3	1.00000E+0	105.634E-3	40.0462E-12	-754.319E-3	26.8863E-3
988.189E-3	33.9044E-12	987.530E-3	988.189E-3	48.4640E-3	40.0523E-12	-755.880E-3	23.1045E-3
976.378E-3	33.4161E-12	975.765E-3	976.378E-3	-82.2973E-3	40.0771E-12	-790.089E-3	21.5640E-3
964.567E-3	32.7273E-12	963.892E-3	964.567E-3	173.380E-3	39.9571E-12	-718.950E-3	24.0720E-3
952.756E-3	32.5405E-12	952.147E-3	952.756E-3	143.885E-3	40.0136E-12	-686.556E-3	25.6068E-3
940.945E-3	31.9986E-12	940.305E-3	940.945E-3	-102.896E-3	39.9720E-12	-770.854E-3	25.7033E-3
929.134E-3	31.6433E-12	928.493E-3	929.134E-3	124.897E-3	39.9653E-12	-693.222E-3	26.8542E-3
917.323E-3	30.9502E-12	916.743E-3	917.323E-3	1.73041E-3	40.0367E-12	-741.312E-3	23.5132E-3
905.512E-3	30.8347E-12	904.879E-3	905.512E-3	-42.3476E-3	40.0367E-12	-741.480E-3	25.4286E-3
893.701E-3	30.1909E-12	893.130E-3	893.701E-3	-77.0657E-3	39.9971E-12	-755.402E-3	26.9943E-3
881.890E-3	30.0149E-12	881.288E-3	881.890E-3	35.2879E-3	40.0084E-12	-713.137E-3	24.4427E-3
870.079E-3	29.3554E-12	869.475E-3	870.079E-3	68.2927E-3	39.9035E-12	-698.709E-3	27.4880E-3
858.268E-3	29.3770E-12	857.658E-3	858.268E-3	133.758E-3	39.9698E-12	-651.544E-3	25.0275E-3
846.457E-3	29.0133E-12	845.821E-3	846.457E-3	-134.961E-3	40.1388E-12	-740.554E-3	24.1765E-3
834.646E-3	28.1541E-12	834.053E-3	834.646E-3	98.2424E-3	40.0172E-12	-673.381E-3	24.4157E-3
822.835E-3	27.5297E-12	822.245E-3	822.835E-3	6.58315E-3	39.9356E-12	-689.714E-3	27.2049E-3
811.024E-3	27.5087E-12	810.416E-3	811.024E-3	14.8096E-3	40.0872E-12	-672.747E-3	25.3382E-3
799.213E-3	27.3020E-12	798.644E-3	799.213E-3	82.1027E-3	39.8813E-12	-648.569E-3	27.7498E-3
787.402E-3	26.8647E-12	786.809E-3	787.402E-3	119.801E-3	40.0094E-12	-613.986E-3	26.2463E-3
775.591E-3	26.2211E-12	775.023E-3	775.591E-3	-230.714E-3	40.0374E-12	-753.223E-3	24.2222E-3
763.780E-3	26.1538E-12	763.196E-3	763.780E-3	78.8092E-3	40.0440E-12	-659.079E-3	22.5995E-3
751.969E-3	25.4882E-12	751.423E-3	751.969E-3	47.1348E-3	39.9410E-12	-673.028E-3	29.1471E-3
740.157E-3	25.2880E-12	739.611E-3	740.157E-3	18.2080E-3	40.0129E-12	-663.998E-3	24.5361E-3
728.346E-3	25.0134E-12	727.781E-3	728.346E-3	-46.7998E-3	40.0196E-12	-682.106E-3	23.8402E-3
716.535E-3	24.6709E-12	715.998E-3	716.535E-3	-86.1601E-3	39.9918E-12	-699.576E-3	24.9641E-3
704.724E-3	24.4952E-12	704.308E-3	704.724E-3	41.0539E-3	40.0337E-12	-638.575E-3	26.6179E-3
692.913E-3	23.7630E-12	692.506E-3	692.913E-3	74.6716E-3	39.9561E-12	-622.879E-3	26.5331E-3
681.102E-3	23.4864E-12	680.721E-3	681.102E-3	-10.9867E-3	40.0031E-12	-667.703E-3	26.5845E-3
669.291E-3	22.7959E-12	668.910E-3	669.291E-3	317.240E-3	40.0001E-12	-538.318E-3	27.6344E-3
657.480E-3	22.5043E-12	657.078E-3	657.480E-3	-103.201E-3	39.9925E-12	-642.594E-3	26.8687E-3
645.669E-3	22.4099E-12	645.278E-3	645.669E-3	-116.105E-3	40.0378E-12	-662.968E-3	25.8440E-3
633.858E-3	21.9167E-12	633.475E-3	633.858E-3	24.3119E-3	40.0651E-12	-620.485E-3	22.2716E-3
622.047E-3	21.6811E-12	621.676E-3	622.047E-3	-6.10888E-3	40.0036E-12	-635.826E-3	23.0414E-3
610.236E-3	21.3039E-12	609.901E-3	610.236E-3	89.9822E-3	39.9768E-12	-609.663E-3	25.8152E-3
598.425E-3	20.9477E-12	598.085E-3	598.425E-3	43.1485E-3	40.0043E-12	-621.223E-3	25.1153E-3
586.614E-3	20.3380E-12	586.284E-3	586.614E-3	47.2366E-3	39.9389E-12	-618.183E-3	26.7496E-3
574.803E-3	20.3095E-12	574.458E-3	574.803E-3	28.6090E-3	40.0598E-12	-614.198E-3	25.2404E-3
562.992E-3	19.9255E-12	562.684E-3	562.992E-3	-33.4635E-3	39.9923E-12	-625.418E-3	25.3880E-3
551.181E-3	19.4709E-12	550.867E-3	551.181E-3	91.4309E-3	39.9816E-12	-593.515E-3	23.7991E-3
539.370E-3	18.9076E-12	539.001E-3	539.370E-3	-83.2817E-3	39.9590E-12	-639.930E-3	26.2002E-3
527.559E-3	18.5501E-12	527.214E-3	527.559E-3	-5.49385E-3	39.9830E-12	-632.188E-3	24.2127E-3
515.748E-3	18.0926E-12	515.384E-3	515.748E-3	47.2158E-3	39.9327E-12	-622.970E-3	27.4357E-3
503.937E-3	17.8664E-12	503.598E-3	503.937E-3	97.6209E-3	39.9765E-12	-585.002E-3	28.3977E-3
492.126E-3	17.5475E-12	491.775E-3	492.126E-3	124.928E-3	40.0039E-12	-572.084E-3	24.0451E-3
480.315E-3	17.2351E-12	479.973E-3	480.315E-3	-105.696E-3	40.0360E-12	-628.492E-3	25.6678E-3
468.504E-3	16.5517E-12	468.170E-3	468.504E-3	-22.8053E-3	39.9636E-12	-645.148E-3	27.3833E-3
456.693E-3	16.4001E-12	456.348E-3	456.693E-3	20.7788E-3	40.0230E-12	-618.851E-3	25.8748E-3
444.882E-3	16.0549E-12	444.587E-3	444.882E-3	-40.6503E-3	39.9716E-12	-634.361E-3	27.3805E-3
433.071E-3	15.5550E-12	432.745E-3	433.071E-3	53.5779E-3	40.0073E-12	-610.380E-3	26.6817E-3
421.260E-3	15.1739E-12	420.937E-3	421.260E-3	57.2455E-3	39.9551E-12	-593.368E-3	28.1317E-3
409.449E-3	14.7656E-12	409.159E-3	409.449E-3	275.858E-6	40.0141E-12	-609.155E-3	26.0967E-3
397.638E-3	14.2514E-12	397.309E-3	397.638E-3	-43.1538E-3	39.9879E-12	-619.109E-3	25.7188E-3
385.827E-3	13.9795E-12	385.550E-3	385.827E-3	-62.6698E-3	39.9174E-12	-652.813E-3	26.8894E-3
374.016E-3	13.6164E-12	373.706E-3	374.016E-3	73.9910E-3	40.0148E-12	-594.224E-3	26.6610E-3
362.205E-3	13.1623E-12	361.904E-3	362.205E-3	-60.7331E-3	40.0063E-12	-656.646E-3	27.5859E-3
350.394E-3	12.7226E-12	350.159E-3	350.394E-3	-548.794E-6	39.9680E-12	-612.920E-3	29.6429E-3
338.583E-3	12.3172E-12	338.300E-3	338.583E-3	70.7169E-3	40.0407E-12	-597.933E-3	26.9742E-3
326.772E-3	11.9821E-12	326.509E-3	326.772E-3	2.00809E-3	40.0290E-12	-621.675E-3	25.0965E-3
314.961E-3	11.4668E-12	314.676E-3	314.961E-3	86.0812E-3	39.9453E-12	-604.202E-3	27.1838E-3
303.150E-3	10.9541E-12	302.850E-3	303.150E-3	-23.2133E-3	40.0002E-12	-641.124E-3	26.3431E-3
291.339E-3	10.6574E-12	291.103E-3	291.339E-3	-123.138E-3	39.9648E-12	-682.017E-3	27.1336E-3
279.528E-3	10.1502E-12	279.278E-3	279.528E-3	133.066E-3	40.0052E-12	-595.770E-3	26.4490E-3
267.717E-3	9.73668E-12	267.464E-3	267.717E-3	2.52644E-3	39.9858E-12	-634.612E-3	27.2707E-3
255.906E-3	9.25458E-12	255.650E-3	255.906E-3	-4.70533E-3	40.0362E-12	-643.826E-3	26.5073E-3
244.094E-3	8.87660E-12	243.865E-3	244.094E-3	-23.6418E-3	39.9790E-12	-646.725E-3	28.2675E-3
232.283E-3	8.42709E-12	232.015E-3	232.283E-3	-11.6253E-3	40.0136E-12	-643.665E-3	25.9593E-3
220.472E-3	7.92162E-12	220.183E-3	220.472E-3	63.0407E-3	40.0097E-12	-624.871E-3	23.1199E-3
208.661E-3	7.44070E-12	208.410E-3	208.661E-3	33.0273E-3	39.9694E-12	-631.567E-3	28.4259E-3
196.850E-3	6.96827E-12	196.568E-3	196.850E-3	-123.019E-3	39.9442E-12	-691.388E-3	26.7325E-3
185.039E-3	6.57676E-12	184.807E-3	185.039E-3	134.667E-3	39.9913E-12	-616.090E-3	28.9499E-3
173.228E-3	6.02255E-12	172.993E-3	173.228E-3	-39.6177E-3	39.9707E-12	-664.000E-3	27.6114E-3
161.417E-3	5.55902E-12	161.157E-3	161.417E-3	18.7154E-3	40.0018E-12	-650.294E-3	27.2095E-3
149.606E-3	5.11057E-12	149.336E-3	149.606E-3	-191.212E-3	39.9310E-12	-732.050E-3	33.4501E-3
137.795E-3	4.66295E-12	137.540E-3	137.795E-3	-41.2495E-3	40.0276E-12	-716.757E-3	27.8829E-3
125.984E-3	4.22598E-12	125.782E-3	125.984E-3	107.397E-3	40.0319E-12	-662.676E-3	26.3300E-3
114.173E-3	3.68902E-12	113.942E-3	114.173E-3	9.67225E-3	39.9730E-12	-650.847E-3	23.8228E-3
102.362E-3	3.28094E-12	102.141E-3	102.362E-3	-133.142E-3	39.9909E-12	-734.048E-3	26.8927E-3
90.5512E-3	2.89692E-12	90.3308E-3	90.5512E-3	48.8947E-3	40.0666E-12	-676.224E-3	23.1378E-3
78.7402E-3	2.43808E-12	78.4965E-3	78.7402E-3	-27.2753E-3	39.9125E-12	-686.762E-3	29.3063E-3
66.9291E-3	2.05500E-12	66.6223E-3	66.9291E-3	-29.0927E-3	40.0262E-12	-703.509E-3	27.9796E-3
55.1181E-3	1.67356E-12	54.8582E-3	55.1181E-3	25.1531E-3	40.0195E-12	-668.657E-3	25.3756E-3
43.3071E-3	1.26354E-12	43.0357E-3	43.3071E-3	16.8294E-3	40.0010E-12	-675.470E-3	25.7017E-3
31.4961E-3	882.602E-15	31.2104E-3	31.4961E-3	-138.697E-3	39.9747E-12	-775.542E-3	28.0357E-3
19.6850E-3	491.375E-15	19.4114E-3	19.6850E-3	90.0651E-3	40.0900E-12	-696.438E-3	23.6877E-3
7.87402E-3	120.740E-15	7.55648E-3	7.87402E-3	-29.4830E-3	39.9611E-12	-741.759E-3	26.6302E-3
-3.93701E-3	-225.195E-15	-4.33671E-3	-3.93701E-3	-18.9068E-3	40.0111E-12	-748.430E-3	28.9109E-3
-15.7480E-3	-599.508E-15	-16.1185E-3	-15.7480E-3	118.712E-3	39.9359E-12	-690.841E-3	29.7662E-3
-27.5591E-3	-979.476E-15	-27.9281E-3	-27.5591E-3	83.8382E-3	40.1106E-12	-693.353E-3	26.0208E-3
-39.3701E-3	-1.35231E-12	-39.6960E-3	-39.3701E-3	-9.25176E-3	40.0271E-12	-719.486E-3	24.6562E-3
-51.1811E-3	-1.67497E-12	-51.5615E-3	-51.1811E-3	-136.914E-3	40.0025E-12	-791.016E-3	26.1625E-3
-62.9921E-3	-1.99226E-12	-63.3302E-3	-62.9921E-3	53.9000E-3	39.9262E-12	-752.317E-3	28.7517E-3
-74.8032E-3	-2.25446E-12	-75.1663E-3	-74.8032E-3	41.5676E-3	39.9725E-12	-759.549E-3	27.6770E-3
-86.6142E-3	-2.41305E-12	-87.0256E-3	-86.6142E-3	29.0382E-3	39.9720E-12	-757.039E-3	28.9853E-3
-98.4252E-3	-2.57267E-12	-98.8002E-3	-98.4252E-3	15.1882E-3	39.9761E-12	-775.889E-3	25.7602E-3
-110.236E-3	-2.69741E-12	-110.649E-3	-110.236E-3	-78.0654E-3	40.0195E-12	-816.684E-3	28.5662E-3
-122.047E-3	-2.83857E-12	-122.390E-3	-122.047E-3	41.3642E-3	39.9401E-12	-785.090E-3	28.6415E-3
-133.858E-3	-2.93554E-12	-134.250E-3	-133.858E-3	21.9448E-3	39.9810E-12	-790.347E-3	29.8774E-3
-145.669E-3	-3.03273E-12	-146.049E-3	-145.669E-3	-141.538E-3	39.9746E-12	-838.492E-3	25.6295E-3
-157.480E-3	-3.08457E-12	-157.822E-3	-157.480E-3	46.6720E-3	40.0518E-12	-821.450E-3	26.2099E-3
-169.291E-3	-3.19767E-12	-169.684E-3	-169.291E-3	31.6462E-3	39.9788E-12	-813.698E-3	26.9987E-3
-181.102E-3	-3.32172E-12	-181.427E-3	-181.102E-3	-12.2878E-3	39.9878E-12	-827.152E-3	26.4241E-3
-192.913E-3	-3.44837E-12	-193.238E-3	-192.913E-3	-107.427E-3	40.0665E-12	-865.186E-3	21.7869E-3
-204.724E-3	-3.56882E-12	-205.073E-3	-204.724E-3	-96.3692E-3	39.9776E-12	-890.916E-3	26.7596E-3
-216.535E-3	-3.65208E-12	-216.865E-3	-216.535E-3	85.0699E-3	39.9928E-12	-824.821E-3	28.4824E-3
-228.346E-3	-3.76444E-12	-228.695E-3	-228.346E-3	-31.9582E-3	39.9990E-12	-882.390E-3	26.6594E-3
-240.157E-3	-3.95205E-12	-240.485E-3	-240.157E-3	4.81785E-3	40.0223E-12	-847.140E-3	28.1569E-3
-251.969E-3	-4.03982E-12	-252.306E-3	-251.969E-3	-61.6405E-3	39.9637E-12	-885.447E-3	26.7315E-3
-263.780E-3	-4.18537E-12	-264.073E-3	-263.780E-3	-37.2033E-3	40.0154E-12	-888.503E-3	29.9755E-3
-275.591E-3	-4.27689E-12	-275.888E-3	-275.591E-3	-131.573E-3	39.9720E-12	-921.990E-3	26.3939E-3
-287.402E-3	-4.45310E-12	-287.726E-3	-287.402E-3	-71.1561E-3	39.9862E-12	-931.669E-3	26.9934E-3
-299.213E-3	-4.58544E-12	-299.523E-3	-299.213E-3	1.07916E-3	39.9511E-12	-914.810E-3	28.4269E-3
-311.024E-3	-4.74621E-12	-311.347E-3	-311.024E-3	-117.150E-3	40.0544E-12	-974.467E-3	22.8874E-3
-322.835E-3	-4.88622E-12	-323.141E-3	-322.835E-3	76.4531E-3	39.9787E-12	-903.939E-3	28.2515E-3
-334.646E-3	-5.02367E-12	-334.912E-3	-334.646E-3	66.6908E-3	40.0406E-12	-915.066E-3	26.4626E-3
-346.457E-3	-5.10278E-12	-346.741E-3	-346.457E-3	31.4945E-3	39.9884E-12	-924.837E-3	28.0122E-3
-358.268E-3	-5.24195E-12	-358.573E-3	-358.268E-3	-38.7637E-3	40.0195E-12	-948.022E-3	24.6936E-3
-370.079E-3	-5.42275E-12	-370.371E-3	-370.079E-3	-100.073E-3	40.0257E-12	-971.523E-3	26.5854E-3
-381.890E-3	-5.50845E-12	-382.139E-3	-381.890E-3	-31.7104E-3	39.9988E-12	-965.400E-3	25.7738E-3
-393.701E-3	-5.62413E-12	-394.007E-3	-393.701E-3	18.5521E-3	39.9576E-12	-963.836E-3	29.8743E-3
-405.512E-3	-5.82299E-12	-405.826E-3	-405.512E-3	81.8608E-3	40.0055E-12	-946.696E-3	27.0901E-3
-417.323E-3	-5.95618E-12	-417.621E-3	-417.323E-3	-108.636E-3	40.0572E-12	-1.00018E+0	25.8068E-3
-429.134E-3	-6.06662E-12	-429.431E-3	-429.134E-3	-199.198E-3	39.9413E-12	-1.06284E+0	29.5043E-3
-440.945E-3	-6.10565E-12	-441.235E-3	-440.945E-3	42.2235E-3	39.9992E-12	-1.00232E+0	29.2823E-3
-452.756E-3	-6.30560E-12	-453.031E-3	-452.756E-3	11.7236E-3	40.0150E-12	-1.02811E+0	28.9835E-3
-464.567E-3	-6.33743E-12	-464.855E-3	-464.567E-3	-65.6989E-3	40.0165E-12	-1.06265E+0	25.9909E-3
-476.378E-3	-6.34833E-12	-476.681E-3	-476.378E-3	-93.7137E-3	39.9313E-12	-1.07952E+0	27.5904E-3
-488.189E-3	-6.51268E-12	-488.411E-3	-488.189E-3	-55.7089E-3	39.9910E-12	-1.08315E+0	27.8652E-3
-500.000E-3	-6.56019E-12	-500.252E-3	-500.000E-3	130.298E-3	40.0350E-12	-1.02110E+0	25.3733E-3
