Experiment	bias spectroscopy	
Date	01.12.2015 04:54:39	
User		
X (m)	281.19E-9	
Y (m)	-138.563E-9	
Z (m)	-4.07703E-9	
Z offset (m)	0E+0	
Settling time (s)	30E-3	
Integration time (s)	200E-3	
Z-Ctrl hold	TRUE	
Final Z (m)	-4.07703E-9	
Filter type	None	
Order		
Cutoff frq		
Current (A)	22.2966E-12	
Z (m)	-4.07703E-9	
Phase (deg)	-468.367E-3	
Amplitude (m)	40.0987E-12	
Frequency Shift (Hz)	-1.24027E+0	
Excitation (V)	29.321E-3	

[DATA]
Bias calc (V)	Current (A)	Applied Voltage measured (V)	Bias (V)	Phase (deg)	Amplitude (m)	Frequency Shift (Hz)	Excitation (V)
1.00000E+0	21.9741E-12	999.326E-3	1.00000E+0	-4.33473E-3	40.0718E-12	-1.09206E+0	25.1905E-3
988.189E-3	21.4482E-12	987.529E-3	988.189E-3	91.4821E-3	40.0049E-12	-1.04713E+0	26.4291E-3
976.378E-3	21.5057E-12	975.765E-3	976.378E-3	6.24295E-3	40.0022E-12	-1.07560E+0	26.9478E-3
964.567E-3	21.2876E-12	963.889E-3	964.567E-3	-32.8112E-3	39.9851E-12	-1.10824E+0	24.7782E-3
952.756E-3	21.1993E-12	952.138E-3	952.756E-3	-68.1658E-3	40.0134E-12	-1.10467E+0	25.5116E-3
940.945E-3	21.0703E-12	940.295E-3	940.945E-3	64.1941E-3	39.9848E-12	-1.06258E+0	24.9480E-3
929.134E-3	20.6954E-12	928.471E-3	929.134E-3	20.5789E-3	39.9705E-12	-1.07487E+0	28.5595E-3
917.323E-3	20.6982E-12	916.723E-3	917.323E-3	139.674E-3	40.0393E-12	-1.02124E+0	23.0643E-3
905.512E-3	20.5172E-12	904.873E-3	905.512E-3	-21.6624E-3	39.9898E-12	-1.05754E+0	26.7840E-3
893.701E-3	20.1377E-12	893.122E-3	893.701E-3	-41.3798E-3	39.9910E-12	-1.09155E+0	28.4408E-3
881.890E-3	20.2846E-12	881.276E-3	881.890E-3	37.9666E-3	40.0677E-12	-1.04716E+0	22.3140E-3
870.079E-3	19.8495E-12	869.461E-3	870.079E-3	98.4656E-3	39.9778E-12	-1.02281E+0	26.3867E-3
858.268E-3	19.6127E-12	857.650E-3	858.268E-3	59.7776E-3	39.9699E-12	-1.01452E+0	26.1511E-3
846.457E-3	19.3995E-12	845.811E-3	846.457E-3	-11.9922E-3	39.9982E-12	-1.03879E+0	22.6099E-3
834.646E-3	19.2486E-12	834.032E-3	834.646E-3	70.2048E-3	40.0170E-12	-990.004E-3	22.9146E-3
822.835E-3	19.2479E-12	822.224E-3	822.835E-3	25.8974E-3	39.9704E-12	-1.00308E+0	23.9270E-3
811.024E-3	19.1780E-12	810.400E-3	811.024E-3	9.24898E-3	40.0028E-12	-1.00301E+0	25.4132E-3
799.213E-3	18.7672E-12	798.618E-3	799.213E-3	-60.2394E-3	39.9698E-12	-1.02168E+0	25.8563E-3
787.402E-3	18.5912E-12	786.790E-3	787.402E-3	-103.713E-3	40.0109E-12	-1.04424E+0	24.3488E-3
775.591E-3	18.5111E-12	775.007E-3	775.591E-3	134.131E-3	40.0179E-12	-983.610E-3	24.2188E-3
763.780E-3	18.2822E-12	763.182E-3	763.780E-3	36.1763E-3	39.9935E-12	-973.864E-3	27.6611E-3
751.969E-3	18.2019E-12	751.407E-3	751.969E-3	-49.6141E-3	40.0444E-12	-981.501E-3	23.3264E-3
740.157E-3	18.0282E-12	739.610E-3	740.157E-3	40.0774E-3	39.9810E-12	-953.206E-3	24.9845E-3
728.346E-3	17.7440E-12	727.767E-3	728.346E-3	39.7145E-3	40.0677E-12	-961.748E-3	26.4364E-3
716.535E-3	17.3364E-12	715.974E-3	716.535E-3	12.5077E-3	39.9660E-12	-957.203E-3	27.3529E-3
704.724E-3	17.2894E-12	704.285E-3	704.724E-3	67.7718E-3	39.9707E-12	-915.302E-3	25.7144E-3
692.913E-3	17.0540E-12	692.487E-3	692.913E-3	-44.2339E-3	39.9382E-12	-943.353E-3	28.2735E-3
681.102E-3	16.9353E-12	680.710E-3	681.102E-3	-55.7593E-3	39.9816E-12	-970.229E-3	26.5475E-3
669.291E-3	16.6805E-12	668.892E-3	669.291E-3	-13.5804E-3	39.9999E-12	-978.886E-3	29.2070E-3
657.480E-3	16.4473E-12	657.055E-3	657.480E-3	115.694E-3	40.0785E-12	-930.838E-3	24.9506E-3
645.669E-3	16.2397E-12	645.246E-3	645.669E-3	-44.9625E-3	39.9686E-12	-977.403E-3	28.4273E-3
633.858E-3	15.9973E-12	633.439E-3	633.858E-3	71.7188E-3	39.9521E-12	-926.667E-3	27.7802E-3
622.047E-3	15.9533E-12	621.638E-3	622.047E-3	40.5431E-3	40.0384E-12	-952.497E-3	25.8155E-3
610.236E-3	15.6471E-12	609.878E-3	610.236E-3	97.9269E-3	40.1038E-12	-899.683E-3	22.3296E-3
598.425E-3	15.3502E-12	598.070E-3	598.425E-3	-123.588E-3	40.0546E-12	-994.648E-3	21.6967E-3
586.614E-3	15.0818E-12	586.259E-3	586.614E-3	-58.6182E-3	39.9684E-12	-980.736E-3	23.1635E-3
574.803E-3	14.8307E-12	574.441E-3	574.803E-3	130.039E-3	39.9951E-12	-928.973E-3	24.6820E-3
562.992E-3	14.5841E-12	562.671E-3	562.992E-3	-72.5415E-3	40.0788E-12	-976.933E-3	24.4485E-3
551.181E-3	14.2891E-12	550.860E-3	551.181E-3	68.3422E-3	39.9332E-12	-933.419E-3	25.4999E-3
539.370E-3	13.9648E-12	538.996E-3	539.370E-3	-55.6461E-3	39.9982E-12	-985.102E-3	26.1699E-3
527.559E-3	13.9281E-12	527.193E-3	527.559E-3	-40.1170E-3	39.9453E-12	-992.713E-3	27.9668E-3
515.748E-3	13.4810E-12	515.369E-3	515.748E-3	223.600E-3	39.9751E-12	-892.774E-3	25.1723E-3
503.937E-3	13.2869E-12	503.582E-3	503.937E-3	126.817E-3	40.0025E-12	-883.987E-3	24.2109E-3
492.126E-3	13.2035E-12	491.761E-3	492.126E-3	-356.545E-6	39.9587E-12	-911.945E-3	26.1711E-3
480.315E-3	12.9874E-12	479.949E-3	480.315E-3	-119.022E-3	40.0738E-12	-954.583E-3	21.1765E-3
468.504E-3	12.4286E-12	468.145E-3	468.504E-3	-89.1972E-3	39.9762E-12	-966.020E-3	24.9826E-3
456.693E-3	12.1582E-12	456.338E-3	456.693E-3	-85.5194E-3	39.9628E-12	-970.164E-3	26.3842E-3
444.882E-3	11.9878E-12	444.571E-3	444.882E-3	99.2085E-3	39.9982E-12	-926.586E-3	25.8905E-3
433.071E-3	11.7329E-12	432.740E-3	433.071E-3	-178.918E-3	39.8923E-12	-1.00513E+0	30.9660E-3
421.260E-3	11.2302E-12	420.928E-3	421.260E-3	126.099E-3	39.9903E-12	-915.486E-3	26.3832E-3
409.449E-3	11.1929E-12	409.149E-3	409.449E-3	-50.8523E-3	40.0381E-12	-945.665E-3	26.6763E-3
397.638E-3	10.6822E-12	397.293E-3	397.638E-3	-14.9835E-3	40.0066E-12	-946.434E-3	25.9510E-3
385.827E-3	10.4415E-12	385.543E-3	385.827E-3	-21.9871E-3	40.0150E-12	-956.326E-3	23.6861E-3
374.016E-3	10.2256E-12	373.709E-3	374.016E-3	-71.4848E-3	40.0125E-12	-989.500E-3	26.0634E-3
362.205E-3	9.87318E-12	361.897E-3	362.205E-3	-15.5772E-3	39.9734E-12	-957.725E-3	23.7069E-3
350.394E-3	9.57834E-12	350.143E-3	350.394E-3	-149.449E-3	39.9658E-12	-1.00592E+0	26.5279E-3
338.583E-3	9.36727E-12	338.301E-3	338.583E-3	-140.888E-3	40.0383E-12	-1.02825E+0	25.9241E-3
326.772E-3	9.07496E-12	326.507E-3	326.772E-3	-69.2761E-3	39.9998E-12	-1.01922E+0	24.2451E-3
314.961E-3	8.76719E-12	314.670E-3	314.961E-3	194.419E-3	40.0105E-12	-921.555E-3	23.7697E-3
303.150E-3	8.44105E-12	302.849E-3	303.150E-3	35.9750E-3	39.9634E-12	-940.706E-3	27.3470E-3
291.339E-3	8.17047E-12	291.098E-3	291.339E-3	-57.0604E-3	40.0266E-12	-1.00093E+0	25.4080E-3
279.528E-3	7.81520E-12	279.271E-3	279.528E-3	74.3409E-3	39.8981E-12	-940.928E-3	26.4913E-3
267.717E-3	7.55134E-12	267.454E-3	267.717E-3	-37.2177E-3	40.0194E-12	-977.207E-3	24.4798E-3
255.906E-3	7.29750E-12	255.637E-3	255.906E-3	31.6582E-3	40.0680E-12	-971.579E-3	24.6828E-3
244.094E-3	6.90278E-12	243.859E-3	244.094E-3	121.898E-3	40.0305E-12	-948.419E-3	20.7289E-3
232.283E-3	6.58259E-12	232.009E-3	232.283E-3	-169.777E-3	39.9746E-12	-1.02646E+0	25.1802E-3
220.472E-3	6.23703E-12	220.173E-3	220.472E-3	22.6940E-3	40.0143E-12	-996.151E-3	24.3614E-3
208.661E-3	5.93218E-12	208.397E-3	208.661E-3	57.0643E-3	39.9335E-12	-976.094E-3	25.1342E-3
196.850E-3	5.65537E-12	196.559E-3	196.850E-3	-120.527E-3	39.9724E-12	-1.01868E+0	26.9954E-3
185.039E-3	5.33424E-12	184.788E-3	185.039E-3	-88.8732E-3	40.0146E-12	-1.04390E+0	26.5963E-3
173.228E-3	4.99894E-12	172.981E-3	173.228E-3	14.5054E-3	40.0632E-12	-1.03375E+0	25.5938E-3
161.417E-3	4.57887E-12	161.141E-3	161.417E-3	10.9549E-3	39.9900E-12	-1.02251E+0	26.1606E-3
149.606E-3	4.25932E-12	149.322E-3	149.606E-3	-79.4506E-3	39.9962E-12	-1.06434E+0	27.0978E-3
137.795E-3	3.99407E-12	137.531E-3	137.795E-3	35.4684E-3	40.0529E-12	-1.03730E+0	21.1954E-3
125.984E-3	3.54147E-12	125.762E-3	125.984E-3	114.662E-3	40.0401E-12	-1.01838E+0	22.9650E-3
114.173E-3	3.23658E-12	113.927E-3	114.173E-3	117.230E-3	39.9684E-12	-1.01335E+0	25.9046E-3
102.362E-3	2.87919E-12	102.125E-3	102.362E-3	50.8926E-3	40.0155E-12	-1.04477E+0	27.1562E-3
90.5512E-3	2.48108E-12	90.3225E-3	90.5512E-3	43.3894E-3	39.9742E-12	-1.04134E+0	25.1811E-3
78.7402E-3	2.16698E-12	78.4940E-3	78.7402E-3	15.9029E-3	39.9560E-12	-1.04635E+0	27.0609E-3
66.9291E-3	1.84520E-12	66.6189E-3	66.9291E-3	-8.80978E-3	39.9739E-12	-1.04143E+0	27.7782E-3
55.1181E-3	1.48026E-12	54.8422E-3	55.1181E-3	-30.7481E-3	39.9983E-12	-1.07611E+0	26.4482E-3
43.3071E-3	1.13833E-12	43.0215E-3	43.3071E-3	-45.5513E-3	39.9996E-12	-1.05166E+0	27.8001E-3
31.4961E-3	797.613E-15	31.1974E-3	31.4961E-3	-10.6991E-3	40.0577E-12	-1.06338E+0	23.6192E-3
19.6850E-3	438.247E-15	19.4068E-3	19.6850E-3	-27.4003E-3	39.9537E-12	-1.06533E+0	27.7024E-3
7.87402E-3	108.938E-15	7.55578E-3	7.87402E-3	27.8587E-3	40.0520E-12	-1.07871E+0	24.2664E-3
-3.93701E-3	-240.743E-15	-4.33910E-3	-3.93701E-3	-47.9382E-3	39.8883E-12	-1.11750E+0	28.8176E-3
-15.7480E-3	-579.627E-15	-16.1187E-3	-15.7480E-3	-121.747E-3	40.0282E-12	-1.16589E+0	26.7180E-3
-27.5591E-3	-911.455E-15	-27.9364E-3	-27.5591E-3	116.773E-3	39.9462E-12	-1.11744E+0	29.7492E-3
-39.3701E-3	-1.27335E-12	-39.7064E-3	-39.3701E-3	-110.704E-3	40.0630E-12	-1.18334E+0	26.6964E-3
-51.1811E-3	-1.61726E-12	-51.5624E-3	-51.1811E-3	84.8318E-3	40.0093E-12	-1.10274E+0	23.5479E-3
-62.9921E-3	-1.94420E-12	-63.3318E-3	-62.9921E-3	16.3706E-3	39.9200E-12	-1.11690E+0	28.4606E-3
-74.8032E-3	-2.20366E-12	-75.1662E-3	-74.8032E-3	-44.3482E-3	40.0070E-12	-1.14556E+0	27.1044E-3
-86.6142E-3	-2.36614E-12	-87.0354E-3	-86.6142E-3	-55.6570E-3	40.0123E-12	-1.14888E+0	23.1370E-3
-98.4252E-3	-2.46636E-12	-98.8047E-3	-98.4252E-3	25.6773E-3	40.0268E-12	-1.12878E+0	25.7966E-3
-110.236E-3	-2.66112E-12	-110.661E-3	-110.236E-3	-258.615E-3	39.9785E-12	-1.24592E+0	27.4069E-3
-122.047E-3	-2.81894E-12	-122.398E-3	-122.047E-3	10.8666E-3	40.0353E-12	-1.17145E+0	23.4360E-3
-133.858E-3	-2.95126E-12	-134.256E-3	-133.858E-3	1.86323E-3	39.9671E-12	-1.17509E+0	27.2901E-3
-145.669E-3	-3.15928E-12	-146.056E-3	-145.669E-3	-59.2730E-3	39.9719E-12	-1.20343E+0	25.9196E-3
-157.480E-3	-3.39637E-12	-157.833E-3	-157.480E-3	103.349E-3	40.0070E-12	-1.16104E+0	25.7017E-3
-169.291E-3	-3.52328E-12	-169.691E-3	-169.291E-3	-20.5875E-3	39.9783E-12	-1.20641E+0	26.8766E-3
-181.102E-3	-3.71566E-12	-181.436E-3	-181.102E-3	37.6862E-3	40.0601E-12	-1.17098E+0	23.6266E-3
-192.913E-3	-3.86314E-12	-193.244E-3	-192.913E-3	-91.0641E-3	39.9793E-12	-1.23618E+0	27.0103E-3
-204.724E-3	-3.99992E-12	-205.075E-3	-204.724E-3	-16.4368E-3	39.8996E-12	-1.23271E+0	27.6056E-3
-216.535E-3	-4.21769E-12	-216.881E-3	-216.535E-3	-69.3912E-3	40.0942E-12	-1.25662E+0	23.9273E-3
-228.346E-3	-4.31894E-12	-228.689E-3	-228.346E-3	-15.3548E-3	39.9538E-12	-1.24346E+0	27.0174E-3
-240.157E-3	-4.46384E-12	-240.494E-3	-240.157E-3	180.715E-3	39.9811E-12	-1.18929E+0	25.8242E-3
-251.969E-3	-4.68179E-12	-252.316E-3	-251.969E-3	-156.910E-3	39.9858E-12	-1.30083E+0	26.4158E-3
-263.780E-3	-4.89649E-12	-264.081E-3	-263.780E-3	-87.8860E-3	39.9928E-12	-1.31147E+0	24.2887E-3
-275.591E-3	-5.11440E-12	-275.884E-3	-275.591E-3	73.9086E-3	39.9822E-12	-1.27006E+0	27.8160E-3
-287.402E-3	-5.23873E-12	-287.734E-3	-287.402E-3	-170.155E-3	40.0092E-12	-1.34787E+0	25.9835E-3
-299.213E-3	-5.48614E-12	-299.516E-3	-299.213E-3	5.66012E-3	39.9644E-12	-1.31392E+0	26.0487E-3
-311.024E-3	-5.61160E-12	-311.340E-3	-311.024E-3	-57.6394E-3	40.0345E-12	-1.32629E+0	25.3986E-3
-322.835E-3	-5.88464E-12	-323.132E-3	-322.835E-3	-126.732E-3	40.0827E-12	-1.36373E+0	21.9946E-3
-334.646E-3	-5.95252E-12	-334.911E-3	-334.646E-3	-78.1769E-3	39.9898E-12	-1.38174E+0	27.4752E-3
-346.457E-3	-6.18059E-12	-346.730E-3	-346.457E-3	-8.26470E-3	40.0661E-12	-1.38108E+0	24.2946E-3
-358.268E-3	-6.26715E-12	-358.563E-3	-358.268E-3	-2.31760E-3	39.9983E-12	-1.37985E+0	25.3690E-3
-370.079E-3	-6.45897E-12	-370.378E-3	-370.079E-3	1.78388E-3	39.9574E-12	-1.38059E+0	26.9499E-3
-381.890E-3	-6.67049E-12	-382.138E-3	-381.890E-3	-67.3428E-3	40.0191E-12	-1.41552E+0	26.4152E-3
-393.701E-3	-6.79754E-12	-394.013E-3	-393.701E-3	184.980E-3	39.9776E-12	-1.32698E+0	26.2051E-3
-405.512E-3	-6.97638E-12	-405.825E-3	-405.512E-3	-102.819E-3	39.9558E-12	-1.41378E+0	28.1633E-3
-417.323E-3	-7.12887E-12	-417.631E-3	-417.323E-3	-11.9866E-3	39.9672E-12	-1.41663E+0	27.9630E-3
-429.134E-3	-7.30253E-12	-429.445E-3	-429.134E-3	40.0666E-3	40.0170E-12	-1.39459E+0	26.3028E-3
-440.945E-3	-7.59832E-12	-441.249E-3	-440.945E-3	-43.5634E-3	40.0038E-12	-1.42610E+0	23.9353E-3
-452.756E-3	-7.85501E-12	-453.051E-3	-452.756E-3	-61.7701E-3	39.9559E-12	-1.45406E+0	25.8842E-3
-464.567E-3	-8.13400E-12	-464.876E-3	-464.567E-3	-72.8518E-3	39.9678E-12	-1.46793E+0	25.5858E-3
-476.378E-3	-8.50659E-12	-476.697E-3	-476.378E-3	-120.010E-3	40.0100E-12	-1.52648E+0	26.0252E-3
-488.189E-3	-8.73656E-12	-488.423E-3	-488.189E-3	-102.710E-3	39.9582E-12	-1.54358E+0	26.8221E-3
-500.000E-3	-9.25727E-12	-500.261E-3	-500.000E-3	-14.5331E-3	39.9481E-12	-1.52698E+0	26.9684E-3
