Experiment	bias spectroscopy	
Date	01.12.2015 02:44:15	
User		
X (m)	281.443E-9	
Y (m)	-139.668E-9	
Z (m)	-4.07703E-9	
Z offset (m)	0E+0	
Settling time (s)	30E-3	
Integration time (s)	200E-3	
Z-Ctrl hold	TRUE	
Final Z (m)	-4.07703E-9	
Filter type	None	
Order		
Cutoff frq		
Current (A)	12.2469E-12	
Z (m)	-4.07703E-9	
Phase (deg)	-279.679E-3	
Amplitude (m)	40.4992E-12	
Frequency Shift (Hz)	-1.23776E+0	
Excitation (V)	7.76456E-3	

[DATA]
Bias calc (V)	Current (A)	Applied Voltage measured (V)	Bias (V)	Phase (deg)	Amplitude (m)	Frequency Shift (Hz)	Excitation (V)
1.00000E+0	12.0678E-12	999.329E-3	1.00000E+0	161.116E-3	40.0081E-12	-1.11132E+0	25.7061E-3
988.189E-3	12.1326E-12	987.542E-3	988.189E-3	-63.0794E-3	40.0218E-12	-1.14718E+0	24.2815E-3
976.378E-3	12.0398E-12	975.776E-3	976.378E-3	43.9477E-3	40.0081E-12	-1.12888E+0	25.8519E-3
964.567E-3	11.6662E-12	963.909E-3	964.567E-3	-53.6620E-3	40.0063E-12	-1.15555E+0	24.1981E-3
952.756E-3	11.5916E-12	952.157E-3	952.756E-3	82.3706E-3	39.9466E-12	-1.11685E+0	28.9006E-3
940.945E-3	11.5151E-12	940.313E-3	940.945E-3	-87.3318E-3	40.0004E-12	-1.15444E+0	26.7645E-3
929.134E-3	11.3771E-12	928.500E-3	929.134E-3	-32.7227E-3	39.9329E-12	-1.15078E+0	29.0962E-3
917.323E-3	11.3314E-12	916.749E-3	917.323E-3	161.377E-3	40.0528E-12	-1.07333E+0	25.8861E-3
905.512E-3	11.0956E-12	904.882E-3	905.512E-3	86.1260E-3	39.9984E-12	-1.06084E+0	26.1040E-3
893.701E-3	10.9549E-12	893.133E-3	893.701E-3	-103.269E-3	39.9721E-12	-1.11562E+0	26.1692E-3
881.890E-3	10.9148E-12	881.292E-3	881.890E-3	-22.9861E-3	40.0807E-12	-1.11300E+0	26.8080E-3
870.079E-3	10.8792E-12	869.494E-3	870.079E-3	37.5414E-3	39.9977E-12	-1.09046E+0	27.0777E-3
858.268E-3	10.6316E-12	857.672E-3	858.268E-3	109.472E-3	40.0096E-12	-1.06785E+0	24.9933E-3
846.457E-3	10.6329E-12	845.838E-3	846.457E-3	50.8314E-3	40.0136E-12	-1.06385E+0	26.2529E-3
834.646E-3	10.5362E-12	834.062E-3	834.646E-3	2.39990E-3	39.9954E-12	-1.06851E+0	25.5498E-3
822.835E-3	10.4707E-12	822.253E-3	822.835E-3	4.79869E-3	39.9783E-12	-1.06544E+0	27.7967E-3
811.024E-3	10.2602E-12	810.426E-3	811.024E-3	31.6923E-3	40.0023E-12	-1.06505E+0	26.2849E-3
799.213E-3	10.3210E-12	798.653E-3	799.213E-3	80.5460E-3	39.9853E-12	-1.00410E+0	26.4252E-3
787.402E-3	10.2045E-12	786.817E-3	787.402E-3	1.67113E-3	39.9984E-12	-1.03885E+0	25.4252E-3
775.591E-3	10.0610E-12	775.027E-3	775.591E-3	5.68466E-3	40.0305E-12	-1.03282E+0	26.2927E-3
763.780E-3	9.83594E-12	763.198E-3	763.780E-3	-42.6831E-3	39.9848E-12	-1.05229E+0	24.5946E-3
751.969E-3	9.72581E-12	751.411E-3	751.969E-3	62.4446E-3	39.9959E-12	-1.02477E+0	26.4665E-3
740.157E-3	9.72847E-12	739.616E-3	740.157E-3	46.6339E-3	40.0805E-12	-1.02477E+0	21.1416E-3
728.346E-3	9.51738E-12	727.789E-3	728.346E-3	-21.8908E-3	39.9873E-12	-1.05558E+0	27.0600E-3
716.535E-3	9.52845E-12	716.000E-3	716.535E-3	9.48130E-3	40.0397E-12	-1.04577E+0	23.9242E-3
704.724E-3	9.30608E-12	704.312E-3	704.724E-3	43.5158E-3	39.9600E-12	-1.05593E+0	25.3492E-3
692.913E-3	9.19422E-12	692.512E-3	692.913E-3	26.1127E-3	40.0071E-12	-1.05555E+0	25.0544E-3
681.102E-3	9.03654E-12	680.738E-3	681.102E-3	-57.8808E-3	40.0102E-12	-1.05404E+0	21.6898E-3
669.291E-3	9.02300E-12	668.915E-3	669.291E-3	-47.9691E-3	40.0032E-12	-1.06233E+0	26.4802E-3
657.480E-3	8.86008E-12	657.083E-3	657.480E-3	42.0553E-3	40.0101E-12	-1.04875E+0	23.5008E-3
645.669E-3	8.75940E-12	645.280E-3	645.669E-3	153.440E-3	39.9405E-12	-1.00393E+0	27.4417E-3
633.858E-3	8.57996E-12	633.475E-3	633.858E-3	61.2986E-3	39.9618E-12	-998.209E-3	26.9614E-3
622.047E-3	8.69041E-12	621.668E-3	622.047E-3	17.1257E-3	40.0764E-12	-996.700E-3	23.4937E-3
610.236E-3	8.42655E-12	609.903E-3	610.236E-3	49.4538E-3	39.9634E-12	-975.693E-3	25.2465E-3
598.425E-3	8.30031E-12	598.094E-3	598.425E-3	39.2431E-3	39.9919E-12	-996.490E-3	27.1751E-3
586.614E-3	8.13877E-12	586.283E-3	586.614E-3	-32.0052E-3	39.8750E-12	-1.03371E+0	29.1409E-3
574.803E-3	8.20985E-12	574.471E-3	574.803E-3	40.6379E-3	40.0788E-12	-988.677E-3	26.7286E-3
562.992E-3	7.96899E-12	562.703E-3	562.992E-3	-70.9834E-3	40.0341E-12	-1.02926E+0	26.0351E-3
551.181E-3	7.87524E-12	550.880E-3	551.181E-3	-43.7955E-3	40.0105E-12	-1.02457E+0	25.6166E-3
539.370E-3	7.67628E-12	539.018E-3	539.370E-3	-2.71779E-3	39.9960E-12	-1.03255E+0	26.5403E-3
527.559E-3	7.57173E-12	527.227E-3	527.559E-3	23.0658E-3	40.0269E-12	-1.01431E+0	26.1009E-3
515.748E-3	7.45481E-12	515.390E-3	515.748E-3	37.0890E-3	40.0078E-12	-1.01454E+0	22.4688E-3
503.937E-3	7.29294E-12	503.603E-3	503.937E-3	65.0145E-3	39.9669E-12	-998.234E-3	26.2311E-3
492.126E-3	7.19472E-12	491.782E-3	492.126E-3	-45.7991E-3	40.0354E-12	-1.02089E+0	22.8741E-3
480.315E-3	7.00939E-12	479.969E-3	480.315E-3	59.0737E-3	39.9883E-12	-995.715E-3	27.0547E-3
468.504E-3	6.86401E-12	468.172E-3	468.504E-3	-85.4430E-3	39.9442E-12	-1.02093E+0	27.8708E-3
456.693E-3	6.70943E-12	456.359E-3	456.693E-3	-172.656E-3	39.9936E-12	-1.07410E+0	23.8768E-3
444.882E-3	6.59174E-12	444.593E-3	444.882E-3	191.757E-3	40.0566E-12	-954.004E-3	25.6250E-3
433.071E-3	6.44177E-12	432.760E-3	433.071E-3	-13.5199E-3	39.9976E-12	-1.01046E+0	24.4361E-3
421.260E-3	6.30727E-12	420.947E-3	421.260E-3	80.3387E-3	39.9231E-12	-975.060E-3	26.8547E-3
409.449E-3	6.26309E-12	409.164E-3	409.449E-3	23.4885E-3	40.0375E-12	-1.00072E+0	25.2023E-3
397.638E-3	6.06661E-12	397.324E-3	397.638E-3	-10.9177E-3	40.0363E-12	-1.01934E+0	26.4876E-3
385.827E-3	5.99748E-12	385.565E-3	385.827E-3	-90.5976E-3	40.0140E-12	-1.05765E+0	26.2971E-3
374.016E-3	5.72459E-12	373.710E-3	374.016E-3	-18.2526E-3	39.9665E-12	-1.04076E+0	27.8318E-3
362.205E-3	5.67697E-12	361.914E-3	362.205E-3	13.4569E-3	40.0346E-12	-1.02650E+0	24.6673E-3
350.394E-3	5.42615E-12	350.175E-3	350.394E-3	-107.626E-3	39.9997E-12	-1.08677E+0	23.8298E-3
338.583E-3	5.26768E-12	338.318E-3	338.583E-3	98.3835E-3	39.9760E-12	-1.01400E+0	24.8509E-3
326.772E-3	5.11795E-12	326.527E-3	326.772E-3	-25.1174E-3	39.9869E-12	-1.04379E+0	26.5502E-3
314.961E-3	4.97704E-12	314.692E-3	314.961E-3	4.38318E-3	39.9932E-12	-1.03556E+0	26.2248E-3
303.150E-3	4.79709E-12	302.871E-3	303.150E-3	47.2214E-3	39.9580E-12	-1.03868E+0	28.2506E-3
291.339E-3	4.60175E-12	291.114E-3	291.339E-3	68.4210E-3	39.9773E-12	-1.03613E+0	28.9917E-3
279.528E-3	4.43047E-12	279.286E-3	279.528E-3	-61.4296E-3	40.0099E-12	-1.07085E+0	26.4314E-3
267.717E-3	4.26128E-12	267.464E-3	267.717E-3	4.25616E-3	39.9500E-12	-1.04663E+0	28.3926E-3
255.906E-3	4.06484E-12	255.632E-3	255.906E-3	-30.7902E-3	39.9949E-12	-1.05954E+0	24.4020E-3
244.094E-3	3.90390E-12	243.867E-3	244.094E-3	1.68779E-3	40.0218E-12	-1.04579E+0	26.1016E-3
232.283E-3	3.72815E-12	232.015E-3	232.283E-3	-32.9222E-3	39.9879E-12	-1.05895E+0	26.2337E-3
220.472E-3	3.51259E-12	220.183E-3	220.472E-3	-116.875E-3	40.0482E-12	-1.09551E+0	24.2035E-3
208.661E-3	3.29749E-12	208.405E-3	208.661E-3	-21.9088E-3	39.9314E-12	-1.09296E+0	27.2048E-3
196.850E-3	3.09855E-12	196.572E-3	196.850E-3	60.0169E-3	39.9631E-12	-1.04101E+0	29.0555E-3
185.039E-3	2.95090E-12	184.806E-3	185.039E-3	-119.640E-3	40.0642E-12	-1.10437E+0	25.0008E-3
173.228E-3	2.72577E-12	172.992E-3	173.228E-3	134.310E-3	39.9800E-12	-1.03549E+0	25.2202E-3
161.417E-3	2.53414E-12	161.158E-3	161.417E-3	-262.757E-3	39.9791E-12	-1.16069E+0	26.8452E-3
149.606E-3	2.37796E-12	149.328E-3	149.606E-3	-104.798E-3	40.0338E-12	-1.13744E+0	25.5642E-3
137.795E-3	2.14348E-12	137.543E-3	137.795E-3	48.0577E-3	40.0278E-12	-1.09608E+0	22.7660E-3
125.984E-3	1.97007E-12	125.774E-3	125.984E-3	-59.1819E-3	39.9598E-12	-1.13932E+0	27.2359E-3
114.173E-3	1.76094E-12	113.942E-3	114.173E-3	55.8001E-3	40.0279E-12	-1.10165E+0	26.6379E-3
102.362E-3	1.57012E-12	102.140E-3	102.362E-3	-87.4429E-3	39.9856E-12	-1.16690E+0	24.2754E-3
90.5512E-3	1.37388E-12	90.3299E-3	90.5512E-3	1.52948E-3	39.9144E-12	-1.15017E+0	26.4214E-3
78.7402E-3	1.17778E-12	78.4998E-3	78.7402E-3	142.072E-3	39.9809E-12	-1.09650E+0	25.9334E-3
66.9291E-3	999.065E-15	66.6340E-3	66.9291E-3	-102.056E-3	40.0075E-12	-1.18894E+0	29.1610E-3
55.1181E-3	779.844E-15	54.8605E-3	55.1181E-3	-25.5498E-3	39.9842E-12	-1.18236E+0	28.0402E-3
43.3071E-3	612.212E-15	43.0403E-3	43.3071E-3	79.3325E-3	40.0108E-12	-1.14444E+0	23.1740E-3
31.4961E-3	418.670E-15	31.2122E-3	31.4961E-3	-211.825E-3	40.0004E-12	-1.22964E+0	26.9839E-3
19.6850E-3	215.644E-15	19.4104E-3	19.6850E-3	28.7199E-3	39.9669E-12	-1.17689E+0	28.7762E-3
7.87402E-3	13.1233E-15	7.55132E-3	7.87402E-3	20.2952E-3	40.0690E-12	-1.18232E+0	26.3479E-3
-3.93701E-3	-192.849E-15	-4.33280E-3	-3.93701E-3	92.8654E-3	39.9383E-12	-1.15891E+0	28.5328E-3
-15.7480E-3	-401.437E-15	-16.1170E-3	-15.7480E-3	-33.3100E-3	40.0487E-12	-1.18558E+0	29.7911E-3
-27.5591E-3	-622.658E-15	-27.9251E-3	-27.5591E-3	-236.416E-3	39.9804E-12	-1.26960E+0	25.7318E-3
-39.3701E-3	-836.700E-15	-39.6973E-3	-39.3701E-3	-37.5436E-3	40.0488E-12	-1.25536E+0	27.1741E-3
-51.1811E-3	-1.06527E-12	-51.5559E-3	-51.1811E-3	87.9387E-3	39.9911E-12	-1.21357E+0	28.2271E-3
-62.9921E-3	-1.29432E-12	-63.3237E-3	-62.9921E-3	-22.1489E-3	40.0565E-12	-1.22785E+0	25.1512E-3
-74.8032E-3	-1.46034E-12	-75.1586E-3	-74.8032E-3	79.3899E-3	40.0008E-12	-1.21263E+0	26.3962E-3
-86.6142E-3	-1.55852E-12	-87.0130E-3	-86.6142E-3	-12.1797E-3	40.0093E-12	-1.23567E+0	24.9738E-3
-98.4252E-3	-1.67492E-12	-98.7806E-3	-98.4252E-3	-171.627E-3	39.9599E-12	-1.29615E+0	28.3757E-3
-110.236E-3	-1.76914E-12	-110.636E-3	-110.236E-3	-34.6741E-3	39.9756E-12	-1.28903E+0	28.6712E-3
-122.047E-3	-1.87897E-12	-122.384E-3	-122.047E-3	-13.2415E-3	39.9892E-12	-1.28589E+0	27.5833E-3
-133.858E-3	-1.95629E-12	-134.236E-3	-133.858E-3	122.035E-3	40.0728E-12	-1.25341E+0	23.9790E-3
-145.669E-3	-2.11418E-12	-146.035E-3	-145.669E-3	32.8306E-3	40.0410E-12	-1.28500E+0	26.3354E-3
-157.480E-3	-2.19416E-12	-157.810E-3	-157.480E-3	-40.8581E-3	39.9171E-12	-1.30634E+0	29.4440E-3
-169.291E-3	-2.29723E-12	-169.681E-3	-169.291E-3	-53.9891E-3	39.9939E-12	-1.32193E+0	26.0763E-3
-181.102E-3	-2.37163E-12	-181.425E-3	-181.102E-3	-57.8762E-3	39.9000E-12	-1.34834E+0	28.5050E-3
-192.913E-3	-2.49049E-12	-193.240E-3	-192.913E-3	67.6434E-3	40.0574E-12	-1.30914E+0	24.3704E-3
-204.724E-3	-2.58874E-12	-205.062E-3	-204.724E-3	-40.4933E-3	40.0816E-12	-1.34306E+0	22.3439E-3
-216.535E-3	-2.69653E-12	-216.861E-3	-216.535E-3	-14.3250E-3	40.0502E-12	-1.35755E+0	25.2333E-3
-228.346E-3	-2.80965E-12	-228.684E-3	-228.346E-3	45.4952E-3	40.0513E-12	-1.33663E+0	26.8763E-3
-240.157E-3	-2.85851E-12	-240.487E-3	-240.157E-3	-182.652E-3	39.9929E-12	-1.43178E+0	24.1079E-3
-251.969E-3	-2.95283E-12	-252.304E-3	-251.969E-3	8.57915E-3	39.9709E-12	-1.39210E+0	25.4233E-3
-263.780E-3	-3.12428E-12	-264.071E-3	-263.780E-3	-43.9994E-3	39.9222E-12	-1.39850E+0	30.6430E-3
-275.591E-3	-3.28763E-12	-275.886E-3	-275.591E-3	15.7795E-3	40.0974E-12	-1.41127E+0	23.0698E-3
-287.402E-3	-3.34860E-12	-287.731E-3	-287.402E-3	-99.5983E-3	40.0108E-12	-1.45230E+0	27.5562E-3
-299.213E-3	-3.42097E-12	-299.512E-3	-299.213E-3	4.67826E-3	39.9258E-12	-1.43963E+0	29.4761E-3
-311.024E-3	-3.54768E-12	-311.337E-3	-311.024E-3	3.86782E-3	40.0603E-12	-1.46162E+0	23.7205E-3
-322.835E-3	-3.57414E-12	-323.143E-3	-322.835E-3	49.8315E-3	39.9779E-12	-1.43419E+0	28.4830E-3
-334.646E-3	-3.70393E-12	-334.916E-3	-334.646E-3	-127.308E-3	40.0393E-12	-1.49881E+0	23.5951E-3
-346.457E-3	-3.75461E-12	-346.734E-3	-346.457E-3	-86.6690E-3	40.0261E-12	-1.51399E+0	24.8935E-3
-358.268E-3	-3.88770E-12	-358.568E-3	-358.268E-3	-49.1522E-3	39.9919E-12	-1.52530E+0	25.3754E-3
-370.079E-3	-3.90464E-12	-370.371E-3	-370.079E-3	182.826E-3	40.0626E-12	-1.42847E+0	23.8406E-3
-381.890E-3	-4.00835E-12	-382.134E-3	-381.890E-3	-66.2695E-3	40.0106E-12	-1.50212E+0	22.4242E-3
-393.701E-3	-4.10644E-12	-394.007E-3	-393.701E-3	52.5857E-3	40.0420E-12	-1.49062E+0	24.2565E-3
-405.512E-3	-4.17303E-12	-405.814E-3	-405.512E-3	-103.360E-3	39.9744E-12	-1.55996E+0	30.0524E-3
-417.323E-3	-4.34461E-12	-417.616E-3	-417.323E-3	61.1225E-3	40.0929E-12	-1.52444E+0	24.1112E-3
-429.134E-3	-4.48268E-12	-429.425E-3	-429.134E-3	-122.606E-3	39.9588E-12	-1.57888E+0	27.0276E-3
-440.945E-3	-4.73152E-12	-441.217E-3	-440.945E-3	-83.7109E-3	40.0418E-12	-1.59725E+0	27.1564E-3
-452.756E-3	-4.82703E-12	-453.028E-3	-452.756E-3	-24.6571E-3	39.9672E-12	-1.57891E+0	26.6179E-3
-464.567E-3	-5.05620E-12	-464.858E-3	-464.567E-3	143.271E-3	39.9916E-12	-1.52044E+0	25.1974E-3
-476.378E-3	-5.23364E-12	-476.674E-3	-476.378E-3	-45.4870E-3	40.0245E-12	-1.62803E+0	23.6955E-3
-488.189E-3	-5.46921E-12	-488.413E-3	-488.189E-3	-47.0747E-3	39.9775E-12	-1.62088E+0	26.6050E-3
-500.000E-3	-5.64688E-12	-500.252E-3	-500.000E-3	-118.400E-3	40.0361E-12	-1.65937E+0	25.1845E-3
