Experiment	bias spectroscopy	
Date	30.11.2015 17:50:15	
User		
X (m)	28.3603E-9	
Y (m)	-166.546E-9	
Z (m)	-3.75578E-9	
Z offset (m)	0E+0	
Settling time (s)	30E-3	
Integration time (s)	200E-3	
Z-Ctrl hold	TRUE	
Final Z (m)	-3.75578E-9	
Filter type	None	
Order		
Cutoff frq		
Current (A)	23.9488E-12	
Z (m)	-3.75578E-9	
Phase (deg)	-924.904E-3	
Amplitude (m)	39.9108E-12	
Frequency Shift (Hz)	-1.04035E+0	
Excitation (V)	24.7303E-3	

[DATA]
Bias calc (V)	Current (A)	Applied Voltage measured (V)	Bias (V)	Phase (deg)	Amplitude (m)	Frequency Shift (Hz)	Excitation (V)
1.00000E+0	23.6070E-12	999.328E-3	1.00000E+0	121.315E-3	39.9309E-12	-712.762E-3	26.7223E-3
988.189E-3	23.2855E-12	987.535E-3	988.189E-3	-14.5021E-3	39.9450E-12	-756.003E-3	29.0533E-3
976.378E-3	23.0589E-12	975.771E-3	976.378E-3	107.864E-3	40.0441E-12	-740.481E-3	26.3489E-3
964.567E-3	22.8758E-12	963.904E-3	964.567E-3	23.4796E-3	40.0653E-12	-738.524E-3	21.8347E-3
952.756E-3	22.4475E-12	952.151E-3	952.756E-3	-98.1248E-3	39.9967E-12	-788.107E-3	24.9545E-3
940.945E-3	22.2974E-12	940.311E-3	940.945E-3	76.1049E-3	39.9319E-12	-723.354E-3	25.5358E-3
929.134E-3	21.9975E-12	928.498E-3	929.134E-3	157.974E-3	39.9171E-12	-682.066E-3	27.5483E-3
917.323E-3	22.1782E-12	916.756E-3	917.323E-3	-109.655E-3	40.0305E-12	-762.456E-3	24.5382E-3
905.512E-3	21.4711E-12	904.889E-3	905.512E-3	73.8835E-3	40.0147E-12	-700.032E-3	24.1058E-3
893.701E-3	21.3317E-12	893.140E-3	893.701E-3	-32.2489E-3	39.9812E-12	-732.092E-3	24.8156E-3
881.890E-3	21.2028E-12	881.292E-3	881.890E-3	-141.043E-3	39.9902E-12	-766.922E-3	27.9119E-3
870.079E-3	21.0506E-12	869.482E-3	870.079E-3	-72.5973E-3	40.0175E-12	-748.990E-3	26.3698E-3
858.268E-3	20.8077E-12	857.665E-3	858.268E-3	83.8518E-3	40.0174E-12	-680.201E-3	27.6199E-3
846.457E-3	20.5782E-12	845.838E-3	846.457E-3	2.33924E-3	40.0280E-12	-700.481E-3	25.5095E-3
834.646E-3	20.4629E-12	834.053E-3	834.646E-3	-37.2988E-3	40.0202E-12	-733.327E-3	25.4436E-3
822.835E-3	20.1054E-12	822.249E-3	822.835E-3	65.4344E-3	40.0421E-12	-686.857E-3	22.8310E-3
811.024E-3	20.1573E-12	810.430E-3	811.024E-3	42.6519E-3	39.9852E-12	-658.854E-3	24.5182E-3
799.213E-3	19.9601E-12	798.661E-3	799.213E-3	53.9829E-3	39.9587E-12	-654.515E-3	26.2599E-3
787.402E-3	19.3952E-12	786.831E-3	787.402E-3	17.6634E-3	39.9406E-12	-660.152E-3	26.9875E-3
775.591E-3	19.4283E-12	775.038E-3	775.591E-3	-78.8211E-3	40.0003E-12	-696.806E-3	25.2564E-3
763.780E-3	18.9235E-12	763.216E-3	763.780E-3	40.6207E-3	39.9486E-12	-673.416E-3	27.0675E-3
751.969E-3	18.9394E-12	751.431E-3	751.969E-3	11.1740E-3	40.0517E-12	-646.476E-3	25.1707E-3
740.157E-3	19.0810E-12	739.638E-3	740.157E-3	57.9114E-3	40.0410E-12	-622.582E-3	26.0224E-3
728.346E-3	18.2951E-12	727.794E-3	728.346E-3	15.2582E-3	39.9883E-12	-631.603E-3	23.1704E-3
716.535E-3	18.2393E-12	716.007E-3	716.535E-3	10.8216E-3	39.9798E-12	-643.076E-3	26.7666E-3
704.724E-3	18.0029E-12	704.322E-3	704.724E-3	-49.3575E-3	39.9724E-12	-673.044E-3	26.4241E-3
692.913E-3	17.6054E-12	692.514E-3	692.913E-3	66.3782E-3	39.9434E-12	-632.706E-3	26.6464E-3
681.102E-3	17.7012E-12	680.747E-3	681.102E-3	-108.037E-3	40.0828E-12	-689.538E-3	25.3226E-3
669.291E-3	17.4699E-12	668.936E-3	669.291E-3	96.1550E-3	40.0255E-12	-623.443E-3	25.0873E-3
657.480E-3	17.1353E-12	657.095E-3	657.480E-3	53.5578E-3	40.0261E-12	-653.958E-3	25.6216E-3
645.669E-3	16.9523E-12	645.293E-3	645.669E-3	163.047E-3	39.9854E-12	-575.526E-3	27.2081E-3
633.858E-3	16.6002E-12	633.489E-3	633.858E-3	-32.9855E-3	39.9047E-12	-614.855E-3	26.9081E-3
622.047E-3	16.5091E-12	621.685E-3	622.047E-3	-3.03839E-3	40.0040E-12	-617.801E-3	25.6466E-3
610.236E-3	16.3310E-12	609.924E-3	610.236E-3	8.22667E-3	40.1086E-12	-620.502E-3	23.1154E-3
598.425E-3	15.6995E-12	598.110E-3	598.425E-3	3.12783E-3	39.9478E-12	-625.923E-3	26.9901E-3
586.614E-3	15.5454E-12	586.308E-3	586.614E-3	6.02964E-3	39.9550E-12	-640.543E-3	27.7676E-3
574.803E-3	15.3463E-12	574.491E-3	574.803E-3	198.568E-3	40.0344E-12	-560.879E-3	23.9145E-3
562.992E-3	14.9241E-12	562.701E-3	562.992E-3	-143.102E-3	39.8787E-12	-663.075E-3	28.8762E-3
551.181E-3	14.9952E-12	550.887E-3	551.181E-3	-77.1125E-3	40.1081E-12	-680.432E-3	24.3219E-3
539.370E-3	14.4593E-12	539.013E-3	539.370E-3	96.4326E-3	39.9068E-12	-597.648E-3	28.1837E-3
527.559E-3	14.3257E-12	527.240E-3	527.559E-3	-41.0096E-3	40.0778E-12	-643.469E-3	25.3870E-3
515.748E-3	13.9899E-12	515.403E-3	515.748E-3	-36.7287E-3	39.9965E-12	-627.813E-3	25.2170E-3
503.937E-3	13.7745E-12	503.621E-3	503.937E-3	70.9936E-3	40.0142E-12	-610.699E-3	25.2443E-3
492.126E-3	13.4537E-12	491.793E-3	492.126E-3	60.6451E-3	39.8897E-12	-602.172E-3	28.7737E-3
480.315E-3	13.3750E-12	479.983E-3	480.315E-3	86.2243E-3	40.0592E-12	-594.377E-3	24.5525E-3
468.504E-3	13.0935E-12	468.179E-3	468.504E-3	-9.77896E-3	39.9558E-12	-621.100E-3	26.0472E-3
456.693E-3	12.7711E-12	456.374E-3	456.693E-3	-92.4527E-3	39.9958E-12	-673.657E-3	29.6846E-3
444.882E-3	12.4649E-12	444.604E-3	444.882E-3	146.321E-3	39.9610E-12	-601.381E-3	28.5732E-3
433.071E-3	12.1298E-12	432.777E-3	433.071E-3	22.0775E-3	39.9575E-12	-593.909E-3	28.2293E-3
421.260E-3	12.0279E-12	420.962E-3	421.260E-3	79.5855E-3	39.9978E-12	-586.818E-3	25.0757E-3
409.449E-3	11.6237E-12	409.184E-3	409.449E-3	-96.8278E-3	39.9842E-12	-649.023E-3	26.3446E-3
397.638E-3	11.2952E-12	397.336E-3	397.638E-3	119.946E-3	40.0141E-12	-580.556E-3	25.1233E-3
385.827E-3	10.9768E-12	385.579E-3	385.827E-3	1.12422E-3	40.0015E-12	-616.136E-3	26.4865E-3
374.016E-3	10.7085E-12	373.737E-3	374.016E-3	136.043E-3	40.0078E-12	-547.060E-3	25.0584E-3
362.205E-3	10.5919E-12	361.936E-3	362.205E-3	3.72503E-3	40.0501E-12	-596.725E-3	24.4392E-3
350.394E-3	10.2851E-12	350.188E-3	350.394E-3	-5.42536E-3	40.0459E-12	-630.925E-3	25.3298E-3
338.583E-3	9.81967E-12	338.332E-3	338.583E-3	89.3639E-3	39.9572E-12	-571.175E-3	27.7511E-3
326.772E-3	9.58825E-12	326.534E-3	326.772E-3	-82.0601E-3	40.0338E-12	-640.303E-3	21.8485E-3
314.961E-3	9.32068E-12	314.714E-3	314.961E-3	-1.08095E-3	40.0269E-12	-639.635E-3	27.6585E-3
303.150E-3	8.83252E-12	302.879E-3	303.150E-3	-7.50495E-3	39.9258E-12	-641.266E-3	28.8595E-3
291.339E-3	8.57112E-12	291.134E-3	291.339E-3	99.2245E-3	40.0398E-12	-574.502E-3	27.4308E-3
279.528E-3	8.34895E-12	279.306E-3	279.528E-3	83.0131E-3	40.0523E-12	-570.634E-3	25.0576E-3
267.717E-3	8.02740E-12	267.481E-3	267.717E-3	-41.8951E-3	40.0530E-12	-637.510E-3	24.7419E-3
255.906E-3	7.57290E-12	255.665E-3	255.906E-3	46.1660E-3	39.9532E-12	-608.786E-3	25.5200E-3
244.094E-3	7.29016E-12	243.892E-3	244.094E-3	62.8748E-3	39.9337E-12	-581.221E-3	28.1309E-3
232.283E-3	6.96638E-12	232.040E-3	232.283E-3	-84.3683E-3	40.0486E-12	-654.633E-3	23.7021E-3
220.472E-3	6.49092E-12	220.212E-3	220.472E-3	-156.021E-3	39.9828E-12	-688.133E-3	25.4589E-3
208.661E-3	6.11999E-12	208.425E-3	208.661E-3	-70.0159E-3	40.0069E-12	-678.845E-3	24.7652E-3
196.850E-3	5.78729E-12	196.594E-3	196.850E-3	34.3635E-3	40.0011E-12	-637.970E-3	25.1237E-3
185.039E-3	5.34818E-12	184.835E-3	185.039E-3	-17.4841E-3	39.9928E-12	-691.876E-3	28.4545E-3
173.228E-3	4.87590E-12	173.022E-3	173.228E-3	-32.5539E-3	39.9873E-12	-678.313E-3	25.5378E-3
161.417E-3	4.57395E-12	161.192E-3	161.417E-3	5.26145E-3	39.9727E-12	-680.180E-3	27.8061E-3
149.606E-3	4.21343E-12	149.364E-3	149.606E-3	46.1090E-3	40.0716E-12	-649.534E-3	24.1181E-3
137.795E-3	3.76773E-12	137.581E-3	137.795E-3	34.3414E-3	39.9969E-12	-658.929E-3	24.1771E-3
125.984E-3	3.40227E-12	125.813E-3	125.984E-3	-40.3418E-3	39.9959E-12	-670.041E-3	25.0396E-3
114.173E-3	3.05123E-12	113.978E-3	114.173E-3	-29.6331E-3	39.9841E-12	-690.214E-3	26.4035E-3
102.362E-3	2.69605E-12	102.174E-3	102.362E-3	25.3711E-3	40.0081E-12	-688.634E-3	27.7617E-3
90.5512E-3	2.35629E-12	90.3613E-3	90.5512E-3	12.1366E-3	39.9921E-12	-698.711E-3	26.0612E-3
78.7402E-3	2.07226E-12	78.5333E-3	78.7402E-3	-32.2480E-3	40.0901E-12	-690.368E-3	23.7857E-3
66.9291E-3	1.71153E-12	66.6510E-3	66.9291E-3	92.4676E-3	40.0160E-12	-663.034E-3	24.4543E-3
55.1181E-3	1.41934E-12	54.8863E-3	55.1181E-3	20.3927E-3	40.0236E-12	-689.437E-3	26.0521E-3
43.3071E-3	1.09953E-12	43.0638E-3	43.3071E-3	41.3211E-3	40.0157E-12	-693.403E-3	28.5546E-3
31.4961E-3	790.869E-15	31.2367E-3	31.4961E-3	69.7844E-3	40.0800E-12	-693.843E-3	24.8819E-3
19.6850E-3	450.379E-15	19.4472E-3	19.6850E-3	-16.8114E-3	39.8900E-12	-715.063E-3	30.2222E-3
7.87402E-3	127.824E-15	7.59046E-3	7.87402E-3	-7.90089E-3	40.0399E-12	-713.114E-3	26.3296E-3
-3.93701E-3	-239.992E-15	-4.29396E-3	-3.93701E-3	104.840E-3	40.0605E-12	-679.735E-3	24.5828E-3
-15.7480E-3	-558.842E-15	-16.0845E-3	-15.7480E-3	-24.0657E-3	40.0017E-12	-715.429E-3	24.0010E-3
-27.5591E-3	-866.083E-15	-27.9012E-3	-27.5591E-3	-27.6490E-3	40.0305E-12	-749.216E-3	26.4757E-3
-39.3701E-3	-1.15866E-12	-39.6674E-3	-39.3701E-3	4.69254E-3	40.0026E-12	-738.627E-3	26.6526E-3
-51.1811E-3	-1.43635E-12	-51.5285E-3	-51.1811E-3	10.6744E-3	40.0310E-12	-744.102E-3	25.2944E-3
-62.9921E-3	-1.72291E-12	-63.2975E-3	-62.9921E-3	-27.3095E-3	39.9189E-12	-760.899E-3	29.2788E-3
-74.8032E-3	-1.92634E-12	-75.1345E-3	-74.8032E-3	43.4259E-3	40.0700E-12	-746.112E-3	26.7632E-3
-86.6142E-3	-2.05386E-12	-87.0028E-3	-86.6142E-3	-115.762E-3	39.9957E-12	-809.299E-3	27.8310E-3
-98.4252E-3	-2.18862E-12	-98.7693E-3	-98.4252E-3	-38.4095E-3	40.0539E-12	-804.787E-3	25.5634E-3
-110.236E-3	-2.30353E-12	-110.622E-3	-110.236E-3	3.14248E-3	40.0146E-12	-788.376E-3	26.2548E-3
-122.047E-3	-2.40507E-12	-122.370E-3	-122.047E-3	123.298E-3	40.0098E-12	-754.018E-3	24.3742E-3
-133.858E-3	-2.48414E-12	-134.225E-3	-133.858E-3	-16.8076E-3	39.9435E-12	-785.183E-3	29.2882E-3
-145.669E-3	-2.56021E-12	-146.023E-3	-145.669E-3	80.7868E-3	40.0051E-12	-757.710E-3	27.4497E-3
-157.480E-3	-2.62076E-12	-157.797E-3	-157.480E-3	-120.983E-3	39.9154E-12	-817.639E-3	30.8439E-3
-169.291E-3	-2.71271E-12	-169.670E-3	-169.291E-3	-113.747E-3	40.0074E-12	-851.087E-3	28.1627E-3
-181.102E-3	-2.82151E-12	-181.420E-3	-181.102E-3	37.2562E-3	39.9994E-12	-793.764E-3	28.8551E-3
-192.913E-3	-2.88748E-12	-193.225E-3	-192.913E-3	5.76771E-3	40.0976E-12	-825.421E-3	27.3767E-3
-204.724E-3	-2.97484E-12	-205.051E-3	-204.724E-3	-7.58171E-3	40.0176E-12	-814.999E-3	25.3329E-3
-216.535E-3	-3.01922E-12	-216.857E-3	-216.535E-3	-68.7432E-3	39.9963E-12	-831.929E-3	26.3635E-3
-228.346E-3	-3.15934E-12	-228.678E-3	-228.346E-3	-69.2859E-3	40.0250E-12	-863.793E-3	26.3848E-3
-240.157E-3	-3.30003E-12	-240.470E-3	-240.157E-3	42.1566E-3	39.9495E-12	-848.449E-3	26.3849E-3
-251.969E-3	-3.33678E-12	-252.296E-3	-251.969E-3	-45.8355E-3	40.0039E-12	-862.716E-3	26.0572E-3
-263.780E-3	-3.47867E-12	-264.051E-3	-263.780E-3	-36.2942E-3	39.9344E-12	-858.777E-3	30.2828E-3
-275.591E-3	-3.58546E-12	-275.859E-3	-275.591E-3	20.4433E-3	40.0576E-12	-867.047E-3	24.4868E-3
-287.402E-3	-3.70248E-12	-287.698E-3	-287.402E-3	-99.3856E-3	39.9613E-12	-900.430E-3	29.6226E-3
-299.213E-3	-3.72453E-12	-299.498E-3	-299.213E-3	-128.166E-3	39.9974E-12	-938.596E-3	26.6199E-3
-311.024E-3	-3.91193E-12	-311.318E-3	-311.024E-3	-130.486E-3	40.0268E-12	-949.708E-3	27.1297E-3
-322.835E-3	-3.97204E-12	-323.120E-3	-322.835E-3	120.539E-3	39.9292E-12	-887.462E-3	28.8933E-3
-334.646E-3	-4.12449E-12	-334.891E-3	-334.646E-3	-36.0782E-3	40.0189E-12	-916.089E-3	29.0717E-3
-346.457E-3	-4.18036E-12	-346.710E-3	-346.457E-3	41.7975E-3	40.0037E-12	-878.259E-3	26.2045E-3
-358.268E-3	-4.30381E-12	-358.545E-3	-358.268E-3	66.0600E-3	40.0021E-12	-876.728E-3	25.5783E-3
-370.079E-3	-4.40317E-12	-370.346E-3	-370.079E-3	-20.9936E-3	39.9963E-12	-919.676E-3	24.6085E-3
-381.890E-3	-4.53363E-12	-382.108E-3	-381.890E-3	-64.2448E-3	39.9965E-12	-945.694E-3	28.2704E-3
-393.701E-3	-4.64544E-12	-393.978E-3	-393.701E-3	8.41675E-3	40.0310E-12	-961.764E-3	26.3410E-3
-405.512E-3	-4.76980E-12	-405.790E-3	-405.512E-3	-12.1792E-3	39.9887E-12	-961.168E-3	27.6985E-3
-417.323E-3	-4.89252E-12	-417.602E-3	-417.323E-3	-176.937E-3	40.0442E-12	-1.03295E+0	27.3006E-3
-429.134E-3	-4.93796E-12	-429.405E-3	-429.134E-3	-82.3886E-3	39.9784E-12	-1.03902E+0	25.9734E-3
-440.945E-3	-5.04427E-12	-441.207E-3	-440.945E-3	-6.68538E-3	39.9992E-12	-1.02922E+0	29.8004E-3
-452.756E-3	-5.11473E-12	-453.007E-3	-452.756E-3	-52.6800E-3	40.0201E-12	-1.03570E+0	27.9020E-3
-464.567E-3	-5.21579E-12	-464.834E-3	-464.567E-3	38.6138E-3	40.0171E-12	-1.00439E+0	26.2766E-3
-476.378E-3	-5.20681E-12	-476.661E-3	-476.378E-3	-122.288E-3	39.9555E-12	-1.04240E+0	27.7960E-3
-488.189E-3	-5.23132E-12	-488.389E-3	-488.189E-3	-25.2547E-3	39.9877E-12	-1.03794E+0	28.8934E-3
-500.000E-3	-5.25574E-12	-500.233E-3	-500.000E-3	-13.4962E-3	40.0004E-12	-1.03163E+0	27.3292E-3
