Experiment	bias spectroscopy	
Date	30.11.2015 16:04:01	
User		
X (m)	28.4807E-9	
Y (m)	-165.638E-9	
Z (m)	-3.75305E-9	
Z offset (m)	0E+0	
Settling time (s)	30E-3	
Integration time (s)	200E-3	
Z-Ctrl hold	TRUE	
Final Z (m)	-3.75305E-9	
Filter type	None	
Order		
Cutoff frq		
Current (A)	17.7135E-12	
Z (m)	-3.75305E-9	
Phase (deg)	-993.038E-3	
Amplitude (m)	39.9425E-12	
Frequency Shift (Hz)	-991.84E-3	
Excitation (V)	30.7575E-3	

[DATA]
Bias calc (V)	Current (A)	Applied Voltage measured (V)	Bias (V)	Phase (deg)	Amplitude (m)	Frequency Shift (Hz)	Excitation (V)
1.00000E+0	17.1347E-12	999.300E-3	1.00000E+0	40.2070E-3	39.9750E-12	-634.255E-3	25.2483E-3
988.189E-3	16.7230E-12	987.505E-3	988.189E-3	93.2230E-3	40.0230E-12	-623.002E-3	25.2306E-3
976.378E-3	16.5298E-12	975.744E-3	976.378E-3	-9.17717E-3	40.0029E-12	-648.888E-3	25.8419E-3
964.567E-3	16.4839E-12	963.882E-3	964.567E-3	-1.59275E-3	40.0162E-12	-671.461E-3	28.2873E-3
952.756E-3	16.1330E-12	952.125E-3	952.756E-3	43.5723E-3	40.0559E-12	-645.005E-3	24.6862E-3
940.945E-3	16.0375E-12	940.289E-3	940.945E-3	44.6723E-3	40.0605E-12	-636.905E-3	23.7488E-3
929.134E-3	15.6113E-12	928.478E-3	929.134E-3	38.9378E-3	40.0128E-12	-629.050E-3	25.0152E-3
917.323E-3	15.2893E-12	916.718E-3	917.323E-3	-68.5149E-3	39.9427E-12	-652.669E-3	27.5830E-3
905.512E-3	15.0750E-12	904.861E-3	905.512E-3	-49.1094E-3	40.0508E-12	-664.890E-3	24.2291E-3
893.701E-3	14.6112E-12	893.101E-3	893.701E-3	182.551E-3	39.9567E-12	-575.006E-3	24.9037E-3
881.890E-3	14.8403E-12	881.270E-3	881.890E-3	48.7434E-3	40.0028E-12	-585.658E-3	26.1391E-3
870.079E-3	14.3988E-12	869.461E-3	870.079E-3	-29.5740E-3	39.9804E-12	-634.584E-3	24.0456E-3
858.268E-3	14.0478E-12	857.642E-3	858.268E-3	-36.1778E-3	39.9333E-12	-626.564E-3	27.0759E-3
846.457E-3	13.7717E-12	845.811E-3	846.457E-3	56.4404E-3	39.9615E-12	-597.165E-3	25.8198E-3
834.646E-3	13.7967E-12	834.027E-3	834.646E-3	98.6619E-3	40.0606E-12	-563.304E-3	24.7381E-3
822.835E-3	13.4788E-12	822.217E-3	822.835E-3	-5.90163E-3	40.0204E-12	-573.318E-3	25.7954E-3
811.024E-3	13.2856E-12	810.403E-3	811.024E-3	116.936E-3	39.9373E-12	-551.399E-3	27.9473E-3
799.213E-3	13.2010E-12	798.634E-3	799.213E-3	-114.777E-3	40.0824E-12	-605.989E-3	23.4213E-3
787.402E-3	12.7459E-12	786.808E-3	787.402E-3	129.276E-3	40.0562E-12	-540.848E-3	23.3197E-3
775.591E-3	12.5097E-12	775.017E-3	775.591E-3	-102.719E-3	39.8887E-12	-611.620E-3	27.7406E-3
763.780E-3	12.2302E-12	763.193E-3	763.780E-3	15.8069E-3	39.9938E-12	-585.487E-3	25.5495E-3
751.969E-3	12.2787E-12	751.415E-3	751.969E-3	37.8429E-3	40.0425E-12	-558.669E-3	24.5813E-3
740.157E-3	11.9299E-12	739.613E-3	740.157E-3	-35.6647E-3	39.9564E-12	-581.359E-3	25.5485E-3
728.346E-3	11.7905E-12	727.780E-3	728.346E-3	-30.1423E-3	40.0370E-12	-576.673E-3	26.8165E-3
716.535E-3	11.4311E-12	715.986E-3	716.535E-3	117.606E-3	39.9730E-12	-523.026E-3	25.8848E-3
704.724E-3	11.4446E-12	704.294E-3	704.724E-3	125.632E-3	40.0462E-12	-485.158E-3	24.7443E-3
692.913E-3	10.8810E-12	692.498E-3	692.913E-3	-211.063E-3	39.9427E-12	-589.892E-3	26.9349E-3
681.102E-3	10.8752E-12	680.724E-3	681.102E-3	-21.3873E-3	40.0980E-12	-570.018E-3	22.0524E-3
669.291E-3	10.6679E-12	668.905E-3	669.291E-3	73.8383E-3	40.0202E-12	-524.212E-3	26.3318E-3
657.480E-3	10.3803E-12	657.063E-3	657.480E-3	44.9876E-3	39.9401E-12	-520.592E-3	28.0839E-3
645.669E-3	10.3934E-12	645.254E-3	645.669E-3	-61.1598E-3	40.0267E-12	-557.516E-3	28.7419E-3
633.858E-3	9.96218E-12	633.451E-3	633.858E-3	72.3138E-3	40.0513E-12	-519.819E-3	23.1665E-3
622.047E-3	9.77258E-12	621.652E-3	622.047E-3	-29.0374E-3	39.9912E-12	-549.890E-3	25.1039E-3
610.236E-3	9.61820E-12	609.883E-3	610.236E-3	-15.2113E-3	39.9926E-12	-542.527E-3	28.2086E-3
598.425E-3	9.34180E-12	598.072E-3	598.425E-3	-72.7329E-3	40.0428E-12	-567.946E-3	23.5977E-3
586.614E-3	9.14422E-12	586.263E-3	586.614E-3	81.8868E-3	40.0330E-12	-510.717E-3	25.4657E-3
574.803E-3	9.02452E-12	574.447E-3	574.803E-3	-10.6918E-3	39.9731E-12	-531.605E-3	27.2651E-3
562.992E-3	8.80360E-12	562.672E-3	562.992E-3	77.3449E-3	39.9381E-12	-515.292E-3	26.1519E-3
551.181E-3	8.64315E-12	550.854E-3	551.181E-3	-13.3993E-3	40.0267E-12	-528.822E-3	23.6438E-3
539.370E-3	8.32041E-12	538.985E-3	539.370E-3	-7.45519E-3	39.9990E-12	-530.568E-3	24.8651E-3
527.559E-3	8.19838E-12	527.203E-3	527.559E-3	-12.2251E-3	40.0452E-12	-515.320E-3	23.8442E-3
515.748E-3	7.98409E-12	515.368E-3	515.748E-3	-169.904E-3	40.0602E-12	-574.972E-3	25.1850E-3
503.937E-3	7.71159E-12	503.586E-3	503.937E-3	973.230E-6	40.0500E-12	-534.034E-3	27.0883E-3
492.126E-3	7.60797E-12	491.755E-3	492.126E-3	14.6141E-3	40.0764E-12	-535.331E-3	21.2716E-3
480.315E-3	7.39552E-12	479.936E-3	480.315E-3	-42.3189E-3	39.9892E-12	-539.959E-3	24.1661E-3
468.504E-3	7.16228E-12	468.138E-3	468.504E-3	83.2829E-3	39.9493E-12	-487.849E-3	28.7982E-3
456.693E-3	7.03295E-12	456.335E-3	456.693E-3	-145.794E-3	39.9726E-12	-574.673E-3	27.6467E-3
444.882E-3	6.75189E-12	444.567E-3	444.882E-3	-49.8260E-3	39.9856E-12	-556.928E-3	23.6352E-3
433.071E-3	6.62548E-12	432.732E-3	433.071E-3	139.560E-3	39.9734E-12	-489.268E-3	25.9205E-3
421.260E-3	6.47610E-12	420.925E-3	421.260E-3	-25.5360E-3	39.9871E-12	-540.432E-3	25.5079E-3
409.449E-3	6.19343E-12	409.154E-3	409.449E-3	83.5803E-3	39.9745E-12	-498.140E-3	26.3028E-3
397.638E-3	5.98521E-12	397.293E-3	397.638E-3	128.200E-3	40.0021E-12	-487.727E-3	24.1575E-3
385.827E-3	5.86271E-12	385.530E-3	385.827E-3	88.1281E-3	39.9482E-12	-479.526E-3	29.0607E-3
374.016E-3	5.73894E-12	373.685E-3	374.016E-3	-163.923E-3	40.1436E-12	-558.729E-3	23.4929E-3
362.205E-3	5.45982E-12	361.883E-3	362.205E-3	66.6692E-3	40.0366E-12	-509.325E-3	25.6046E-3
350.394E-3	5.19552E-12	350.139E-3	350.394E-3	-96.0322E-3	39.9464E-12	-557.345E-3	28.2599E-3
338.583E-3	5.06198E-12	338.289E-3	338.583E-3	85.9452E-3	40.0755E-12	-484.608E-3	26.0430E-3
326.772E-3	4.84026E-12	326.502E-3	326.772E-3	147.858E-3	39.9941E-12	-448.467E-3	24.5244E-3
314.961E-3	4.65219E-12	314.663E-3	314.961E-3	-63.9611E-3	39.9816E-12	-508.044E-3	26.7475E-3
303.150E-3	4.43866E-12	302.840E-3	303.150E-3	-17.1446E-3	40.0388E-12	-512.061E-3	23.0363E-3
291.339E-3	4.27828E-12	291.091E-3	291.339E-3	-95.7267E-3	40.0507E-12	-541.893E-3	24.0676E-3
279.528E-3	3.99879E-12	279.266E-3	279.528E-3	-36.3243E-3	39.9749E-12	-543.164E-3	26.9212E-3
267.717E-3	3.85310E-12	267.454E-3	267.717E-3	-21.3717E-3	40.0513E-12	-541.491E-3	25.6699E-3
255.906E-3	3.66480E-12	255.626E-3	255.906E-3	70.3848E-3	39.9442E-12	-513.204E-3	27.6145E-3
244.094E-3	3.50758E-12	243.859E-3	244.094E-3	-8.18867E-3	40.0307E-12	-520.675E-3	26.2685E-3
232.283E-3	3.34740E-12	232.011E-3	232.283E-3	-58.7318E-3	39.9684E-12	-565.702E-3	28.4471E-3
220.472E-3	3.12559E-12	220.178E-3	220.472E-3	170.078E-3	40.0368E-12	-475.562E-3	24.9688E-3
208.661E-3	2.93786E-12	208.401E-3	208.661E-3	4.64439E-3	40.0255E-12	-534.066E-3	24.5531E-3
196.850E-3	2.69799E-12	196.556E-3	196.850E-3	54.6184E-3	40.0434E-12	-521.025E-3	24.8830E-3
185.039E-3	2.52198E-12	184.787E-3	185.039E-3	64.5356E-3	39.9805E-12	-518.848E-3	25.7716E-3
173.228E-3	2.29652E-12	172.985E-3	173.228E-3	36.1536E-3	39.9119E-12	-534.557E-3	29.1391E-3
161.417E-3	2.14741E-12	161.152E-3	161.417E-3	-74.4983E-3	40.0442E-12	-559.801E-3	27.3427E-3
149.606E-3	1.92660E-12	149.333E-3	149.606E-3	37.5900E-3	40.0079E-12	-518.364E-3	24.5179E-3
137.795E-3	1.76903E-12	137.542E-3	137.795E-3	-9.66918E-3	40.0787E-12	-546.124E-3	24.3791E-3
125.984E-3	1.52935E-12	125.777E-3	125.984E-3	-116.418E-3	39.9473E-12	-601.384E-3	25.3037E-3
114.173E-3	1.38891E-12	113.940E-3	114.173E-3	26.2471E-3	39.9435E-12	-555.721E-3	26.1440E-3
102.362E-3	1.21071E-12	102.136E-3	102.362E-3	-24.5549E-3	40.0230E-12	-570.739E-3	27.5011E-3
90.5512E-3	1.05452E-12	90.3254E-3	90.5512E-3	-63.2898E-3	40.0092E-12	-592.812E-3	23.0253E-3
78.7402E-3	883.487E-15	78.5015E-3	78.7402E-3	38.3477E-3	40.0373E-12	-588.004E-3	24.1397E-3
66.9291E-3	697.952E-15	66.6180E-3	66.9291E-3	-26.6183E-3	39.9449E-12	-592.997E-3	25.3273E-3
55.1181E-3	560.863E-15	54.8434E-3	55.1181E-3	51.6234E-3	39.9718E-12	-592.227E-3	29.4635E-3
43.3071E-3	403.919E-15	43.0250E-3	43.3071E-3	130.239E-3	39.9709E-12	-533.323E-3	28.4896E-3
31.4961E-3	260.765E-15	31.1939E-3	31.4961E-3	72.1642E-3	40.0180E-12	-535.780E-3	25.4103E-3
19.6850E-3	111.428E-15	19.3980E-3	19.6850E-3	-109.537E-3	40.0394E-12	-598.319E-3	24.6357E-3
7.87402E-3	-44.1256E-15	7.54185E-3	7.87402E-3	15.2832E-3	40.0384E-12	-575.651E-3	23.9318E-3
-3.93701E-3	-165.632E-15	-4.34643E-3	-3.93701E-3	-83.2783E-3	40.0002E-12	-625.377E-3	25.2005E-3
-15.7480E-3	-309.059E-15	-16.1336E-3	-15.7480E-3	-2.96248E-3	39.9169E-12	-621.654E-3	30.4012E-3
-27.5591E-3	-445.806E-15	-27.9407E-3	-27.5591E-3	180.927E-3	39.9830E-12	-555.226E-3	28.6164E-3
-39.3701E-3	-584.444E-15	-39.7061E-3	-39.3701E-3	-41.4928E-3	39.9899E-12	-613.419E-3	27.0783E-3
-51.1811E-3	-708.557E-15	-51.5651E-3	-51.1811E-3	-11.6471E-3	39.9564E-12	-595.059E-3	28.5020E-3
-62.9921E-3	-825.632E-15	-63.3337E-3	-62.9921E-3	-86.9045E-3	40.0592E-12	-645.846E-3	23.5723E-3
-74.8032E-3	-918.747E-15	-75.1708E-3	-74.8032E-3	-44.4735E-3	39.9852E-12	-639.097E-3	27.4843E-3
-86.6142E-3	-986.565E-15	-87.0242E-3	-86.6142E-3	54.8993E-3	39.9803E-12	-620.383E-3	27.4864E-3
-98.4252E-3	-1.03429E-12	-98.7958E-3	-98.4252E-3	-258.640E-6	39.9817E-12	-624.769E-3	25.4796E-3
-110.236E-3	-1.07808E-12	-110.655E-3	-110.236E-3	12.2790E-3	40.0089E-12	-652.133E-3	26.2405E-3
-122.047E-3	-1.13457E-12	-122.399E-3	-122.047E-3	-19.3416E-3	40.0382E-12	-638.505E-3	26.8266E-3
-133.858E-3	-1.18176E-12	-134.254E-3	-133.858E-3	-111.737E-3	39.9741E-12	-677.763E-3	28.0716E-3
-145.669E-3	-1.24291E-12	-146.051E-3	-145.669E-3	-94.0094E-3	39.9688E-12	-692.148E-3	27.2516E-3
-157.480E-3	-1.28065E-12	-157.823E-3	-157.480E-3	16.7964E-3	39.9521E-12	-669.149E-3	28.0473E-3
-169.291E-3	-1.30451E-12	-169.695E-3	-169.291E-3	13.7360E-3	39.9960E-12	-669.736E-3	26.4341E-3
-181.102E-3	-1.36742E-12	-181.442E-3	-181.102E-3	48.6652E-3	40.0296E-12	-658.010E-3	26.0177E-3
-192.913E-3	-1.41244E-12	-193.251E-3	-192.913E-3	57.3412E-3	39.9462E-12	-659.633E-3	29.0087E-3
-204.724E-3	-1.44246E-12	-205.078E-3	-204.724E-3	-144.261E-3	40.0030E-12	-719.661E-3	29.1491E-3
-216.535E-3	-1.49415E-12	-216.877E-3	-216.535E-3	38.4078E-3	39.9463E-12	-670.355E-3	30.7082E-3
-228.346E-3	-1.57551E-12	-228.694E-3	-228.346E-3	-37.7282E-3	40.0020E-12	-705.478E-3	25.6127E-3
-240.157E-3	-1.63259E-12	-240.496E-3	-240.157E-3	-43.6805E-3	40.0146E-12	-729.328E-3	24.2195E-3
-251.969E-3	-1.66580E-12	-252.315E-3	-251.969E-3	-6.82202E-3	39.9241E-12	-733.268E-3	28.7797E-3
-263.780E-3	-1.72960E-12	-264.087E-3	-263.780E-3	-116.650E-3	40.0658E-12	-786.686E-3	23.0584E-3
-275.591E-3	-1.76769E-12	-275.887E-3	-275.591E-3	135.904E-3	39.9950E-12	-716.242E-3	26.8432E-3
-287.402E-3	-1.83993E-12	-287.731E-3	-287.402E-3	-86.9084E-3	39.9002E-12	-774.715E-3	29.3237E-3
-299.213E-3	-1.92788E-12	-299.518E-3	-299.213E-3	-114.972E-3	40.0128E-12	-819.104E-3	26.4676E-3
-311.024E-3	-1.97181E-12	-311.344E-3	-311.024E-3	46.3270E-3	40.0071E-12	-768.905E-3	25.3327E-3
-322.835E-3	-2.05607E-12	-323.140E-3	-322.835E-3	-53.0461E-3	40.0089E-12	-792.594E-3	25.7907E-3
-334.646E-3	-2.11493E-12	-334.912E-3	-334.646E-3	-44.4885E-3	39.9755E-12	-790.859E-3	26.5101E-3
-346.457E-3	-2.16128E-12	-346.738E-3	-346.457E-3	48.5000E-3	39.9581E-12	-759.299E-3	27.1607E-3
-358.268E-3	-2.26701E-12	-358.576E-3	-358.268E-3	-21.8188E-3	40.0160E-12	-796.208E-3	27.4970E-3
-370.079E-3	-2.31514E-12	-370.380E-3	-370.079E-3	2.98053E-3	40.0734E-12	-802.605E-3	24.7097E-3
-381.890E-3	-2.39825E-12	-382.150E-3	-381.890E-3	6.64379E-3	39.9636E-12	-786.080E-3	26.0814E-3
-393.701E-3	-2.47798E-12	-394.025E-3	-393.701E-3	-207.062E-3	40.0688E-12	-873.654E-3	25.1298E-3
-405.512E-3	-2.55696E-12	-405.833E-3	-405.512E-3	43.4417E-3	40.0606E-12	-827.556E-3	24.9435E-3
-417.323E-3	-2.61131E-12	-417.639E-3	-417.323E-3	-82.3885E-3	40.0264E-12	-886.929E-3	26.3767E-3
-429.134E-3	-2.65375E-12	-429.454E-3	-429.134E-3	171.819E-6	40.0498E-12	-882.145E-3	23.5869E-3
-440.945E-3	-2.70285E-12	-441.249E-3	-440.945E-3	46.7323E-3	39.9950E-12	-865.207E-3	26.5917E-3
-452.756E-3	-2.74425E-12	-453.046E-3	-452.756E-3	98.8094E-3	40.0088E-12	-839.301E-3	24.9369E-3
-464.567E-3	-2.76529E-12	-464.876E-3	-464.567E-3	-42.4926E-3	39.9222E-12	-881.691E-3	27.1844E-3
-476.378E-3	-2.80198E-12	-476.704E-3	-476.378E-3	91.8224E-3	40.0554E-12	-836.484E-3	25.6723E-3
-488.189E-3	-2.84122E-12	-488.431E-3	-488.189E-3	-82.8492E-3	40.0059E-12	-885.043E-3	26.5750E-3
-500.000E-3	-2.87200E-12	-500.267E-3	-500.000E-3	-142.504E-3	40.0152E-12	-923.638E-3	25.2756E-3
