Experiment	bias spectroscopy	
Date	30.11.2015 17:03:54	
User		
X (m)	28.719E-9	
Y (m)	-165.755E-9	
Z (m)	-3.77004E-9	
Z offset (m)	0E+0	
Settling time (s)	30E-3	
Integration time (s)	200E-3	
Z-Ctrl hold	TRUE	
Final Z (m)	-3.76887E-9	
Filter type	None	
Order		
Cutoff frq		
Current (A)	99.5377E-12	
Z (m)	-3.77007E-9	
Phase (deg)	-1.16083E+0	
Amplitude (m)	40.1806E-12	
Frequency Shift (Hz)	-872.153E-3	
Excitation (V)	4.75919E-3	

[DATA]
Bias calc (V)	Current (A)	Applied Voltage measured (V)	Bias (V)	Phase (deg)	Amplitude (m)	Frequency Shift (Hz)	Excitation (V)
1.00000E+0	99.8090E-12	999.314E-3	1.00000E+0	-81.3558E-3	39.8412E-12	-580.692E-3	25.3235E-3
988.189E-3	98.8499E-12	987.517E-3	988.189E-3	328.078E-3	39.9571E-12	-469.649E-3	25.0326E-3
976.378E-3	98.0668E-12	975.755E-3	976.378E-3	225.606E-3	39.9425E-12	-469.923E-3	23.0948E-3
964.567E-3	97.5531E-12	963.887E-3	964.567E-3	41.6155E-3	40.0737E-12	-514.303E-3	22.3741E-3
952.756E-3	96.5594E-12	952.132E-3	952.756E-3	-196.414E-3	39.9075E-12	-597.120E-3	23.6744E-3
940.945E-3	95.9682E-12	940.293E-3	940.945E-3	9.02988E-3	39.9916E-12	-542.970E-3	22.0862E-3
929.134E-3	94.9850E-12	928.467E-3	929.134E-3	59.5367E-3	40.0002E-12	-519.613E-3	22.3315E-3
917.323E-3	94.4595E-12	916.723E-3	917.323E-3	20.0978E-3	40.0558E-12	-516.745E-3	22.0160E-3
905.512E-3	93.1229E-12	904.861E-3	905.512E-3	-68.6680E-3	40.0433E-12	-585.454E-3	19.4296E-3
893.701E-3	92.1922E-12	893.105E-3	893.701E-3	-19.9114E-3	39.9862E-12	-590.868E-3	18.9678E-3
881.890E-3	91.5922E-12	881.261E-3	881.890E-3	181.626E-3	39.9861E-12	-501.126E-3	24.2229E-3
870.079E-3	90.7374E-12	869.460E-3	870.079E-3	-184.961E-3	40.0189E-12	-608.711E-3	22.8159E-3
858.268E-3	89.5725E-12	857.627E-3	858.268E-3	268.023E-3	39.9321E-12	-471.395E-3	21.8467E-3
846.457E-3	89.3287E-12	845.806E-3	846.457E-3	16.3039E-3	40.0126E-12	-496.036E-3	23.0813E-3
834.646E-3	88.6504E-12	834.025E-3	834.646E-3	-95.9724E-3	40.0831E-12	-583.351E-3	18.8918E-3
822.835E-3	87.5887E-12	822.210E-3	822.835E-3	79.0747E-3	39.9709E-12	-484.637E-3	24.5299E-3
811.024E-3	86.6847E-12	810.384E-3	811.024E-3	-125.487E-3	39.9943E-12	-535.128E-3	22.7978E-3
799.213E-3	86.1056E-12	798.625E-3	799.213E-3	173.227E-3	40.0734E-12	-494.929E-3	20.7928E-3
787.402E-3	84.6209E-12	786.797E-3	787.402E-3	-6.41688E-3	40.0149E-12	-540.558E-3	19.0158E-3
775.591E-3	84.5268E-12	775.005E-3	775.591E-3	-28.6187E-3	40.0837E-12	-531.729E-3	21.4712E-3
763.780E-3	83.3939E-12	763.177E-3	763.780E-3	-77.9062E-3	39.9925E-12	-541.348E-3	24.3433E-3
751.969E-3	81.9960E-12	751.401E-3	751.969E-3	180.557E-3	39.9400E-12	-470.719E-3	27.0930E-3
740.157E-3	81.4804E-12	739.602E-3	740.157E-3	-5.39935E-3	39.9986E-12	-513.698E-3	23.8844E-3
728.346E-3	80.9671E-12	727.765E-3	728.346E-3	-251.671E-3	40.0922E-12	-556.309E-3	21.7497E-3
716.535E-3	79.6029E-12	715.975E-3	716.535E-3	202.186E-3	39.9598E-12	-447.054E-3	23.6850E-3
704.724E-3	79.1870E-12	704.283E-3	704.724E-3	18.6501E-3	40.0582E-12	-470.969E-3	21.8712E-3
692.913E-3	78.3373E-12	692.490E-3	692.913E-3	-93.3130E-3	39.9904E-12	-518.497E-3	25.5798E-3
681.102E-3	77.1550E-12	680.705E-3	681.102E-3	-7.27630E-3	39.9783E-12	-471.827E-3	25.4179E-3
669.291E-3	76.6976E-12	668.887E-3	669.291E-3	135.370E-3	39.9582E-12	-444.293E-3	24.0508E-3
657.480E-3	76.0387E-12	657.055E-3	657.480E-3	-33.9843E-3	40.0606E-12	-509.101E-3	21.6674E-3
645.669E-3	74.2245E-12	645.246E-3	645.669E-3	-23.0668E-3	39.9546E-12	-522.015E-3	25.2580E-3
633.858E-3	73.7149E-12	633.440E-3	633.858E-3	203.278E-3	40.0721E-12	-425.354E-3	24.8806E-3
622.047E-3	72.7411E-12	621.641E-3	622.047E-3	-86.1404E-3	40.0374E-12	-505.473E-3	21.1800E-3
610.236E-3	71.9423E-12	609.880E-3	610.236E-3	-184.928E-3	40.0675E-12	-558.796E-3	22.7182E-3
598.425E-3	70.3359E-12	598.070E-3	598.425E-3	159.154E-3	39.8514E-12	-455.578E-3	29.4056E-3
586.614E-3	69.7517E-12	586.257E-3	586.614E-3	121.435E-3	40.1248E-12	-497.205E-3	20.1243E-3
574.803E-3	69.0996E-12	574.424E-3	574.803E-3	-128.253E-3	40.0274E-12	-554.443E-3	22.9334E-3
562.992E-3	67.9373E-12	562.649E-3	562.992E-3	83.7520E-3	39.9313E-12	-496.374E-3	26.2816E-3
551.181E-3	66.8131E-12	550.837E-3	551.181E-3	-20.0341E-3	40.0637E-12	-533.498E-3	24.0371E-3
539.370E-3	66.0075E-12	538.971E-3	539.370E-3	50.8563E-3	40.0125E-12	-514.794E-3	21.9944E-3
527.559E-3	65.1431E-12	527.193E-3	527.559E-3	178.106E-3	39.9418E-12	-474.568E-3	23.9847E-3
515.748E-3	63.4888E-12	515.355E-3	515.748E-3	-95.4914E-3	39.8993E-12	-531.112E-3	25.4808E-3
503.937E-3	63.2846E-12	503.577E-3	503.937E-3	-52.4993E-3	40.1730E-12	-523.040E-3	21.6613E-3
492.126E-3	61.7210E-12	491.754E-3	492.126E-3	64.1576E-3	39.9469E-12	-471.046E-3	22.8228E-3
480.315E-3	60.9954E-12	479.932E-3	480.315E-3	26.7851E-3	40.1035E-12	-500.403E-3	20.0090E-3
468.504E-3	59.2425E-12	468.140E-3	468.504E-3	-73.9096E-3	39.9239E-12	-526.267E-3	22.3468E-3
456.693E-3	58.9926E-12	456.335E-3	456.693E-3	-63.3660E-3	40.1360E-12	-517.733E-3	21.8137E-3
444.882E-3	57.6772E-12	444.571E-3	444.882E-3	107.786E-3	39.9486E-12	-464.313E-3	23.8245E-3
433.071E-3	56.0402E-12	432.733E-3	433.071E-3	-71.1841E-3	40.0535E-12	-532.940E-3	22.1800E-3
421.260E-3	55.0468E-12	420.924E-3	421.260E-3	-72.1885E-3	39.9929E-12	-560.867E-3	24.0481E-3
409.449E-3	54.3178E-12	409.144E-3	409.449E-3	27.5523E-3	39.9878E-12	-512.857E-3	25.6563E-3
397.638E-3	53.2941E-12	397.297E-3	397.638E-3	65.5235E-3	40.1538E-12	-510.389E-3	20.5593E-3
385.827E-3	52.1361E-12	385.537E-3	385.827E-3	51.3404E-3	39.9947E-12	-493.382E-3	26.0138E-3
374.016E-3	50.1104E-12	373.694E-3	374.016E-3	19.5556E-3	39.9823E-12	-512.651E-3	22.9434E-3
362.205E-3	49.2951E-12	361.894E-3	362.205E-3	26.2253E-3	39.9791E-12	-523.448E-3	27.4421E-3
350.394E-3	48.2429E-12	350.151E-3	350.394E-3	-185.747E-3	40.1156E-12	-627.672E-3	21.1113E-3
338.583E-3	46.5682E-12	338.293E-3	338.583E-3	129.966E-3	39.9513E-12	-517.695E-3	25.3560E-3
326.772E-3	45.6409E-12	326.497E-3	326.772E-3	93.3844E-3	40.0456E-12	-524.735E-3	24.7983E-3
314.961E-3	43.6587E-12	314.671E-3	314.961E-3	21.9963E-3	39.9692E-12	-560.536E-3	24.2337E-3
303.150E-3	42.2655E-12	302.852E-3	303.150E-3	-23.6121E-3	40.0127E-12	-577.454E-3	26.0703E-3
291.339E-3	41.3492E-12	291.098E-3	291.339E-3	53.5601E-3	40.0604E-12	-581.679E-3	20.1480E-3
279.528E-3	39.5860E-12	279.270E-3	279.528E-3	56.7839E-3	39.9810E-12	-560.073E-3	25.5714E-3
267.717E-3	38.3610E-12	267.458E-3	267.717E-3	9.42161E-3	39.9692E-12	-571.786E-3	27.9969E-3
255.906E-3	36.5628E-12	255.626E-3	255.906E-3	-126.379E-3	40.0300E-12	-631.119E-3	25.0557E-3
244.094E-3	35.2502E-12	243.853E-3	244.094E-3	102.759E-3	40.0639E-12	-600.471E-3	22.6180E-3
232.283E-3	33.3361E-12	231.996E-3	232.283E-3	-5.67587E-3	39.9700E-12	-639.451E-3	27.5211E-3
220.472E-3	31.8723E-12	220.171E-3	220.472E-3	191.789E-3	40.0461E-12	-570.848E-3	23.2984E-3
208.661E-3	30.2853E-12	208.392E-3	208.661E-3	-178.237E-3	39.9609E-12	-694.366E-3	23.9809E-3
196.850E-3	28.9751E-12	196.559E-3	196.850E-3	-42.7110E-3	40.0754E-12	-650.069E-3	20.7422E-3
185.039E-3	27.3225E-12	184.789E-3	185.039E-3	2.80329E-3	39.9710E-12	-658.166E-3	25.3749E-3
173.228E-3	25.6334E-12	172.986E-3	173.228E-3	203.206E-3	40.0483E-12	-565.946E-3	26.9274E-3
161.417E-3	23.5394E-12	161.142E-3	161.417E-3	-26.3356E-3	39.9836E-12	-657.269E-3	26.1210E-3
149.606E-3	22.0094E-12	149.319E-3	149.606E-3	-4.12576E-3	40.0087E-12	-676.220E-3	26.0033E-3
137.795E-3	20.4304E-12	137.525E-3	137.795E-3	224.379E-3	39.9328E-12	-606.476E-3	29.2419E-3
125.984E-3	18.6702E-12	125.757E-3	125.984E-3	-12.2662E-3	40.0122E-12	-651.075E-3	25.5678E-3
114.173E-3	16.9790E-12	113.919E-3	114.173E-3	126.559E-3	40.0436E-12	-602.098E-3	28.1519E-3
102.362E-3	14.9973E-12	102.126E-3	102.362E-3	-102.163E-3	39.9519E-12	-716.107E-3	27.6311E-3
90.5512E-3	13.2028E-12	90.3111E-3	90.5512E-3	-30.1997E-3	39.9408E-12	-710.769E-3	28.9205E-3
78.7402E-3	11.4018E-12	78.4894E-3	78.7402E-3	-116.905E-3	40.0672E-12	-744.042E-3	27.5862E-3
66.9291E-3	9.64391E-12	66.6152E-3	66.9291E-3	-74.9788E-3	40.0425E-12	-772.972E-3	23.9367E-3
55.1181E-3	7.85324E-12	54.8439E-3	55.1181E-3	-22.1421E-3	40.0038E-12	-760.003E-3	23.7953E-3
43.3071E-3	5.94187E-12	43.0247E-3	43.3071E-3	30.6866E-3	40.0013E-12	-730.224E-3	22.8480E-3
31.4961E-3	4.28167E-12	31.1865E-3	31.4961E-3	-25.6428E-3	39.9685E-12	-770.024E-3	28.9454E-3
19.6850E-3	2.70772E-12	19.3914E-3	19.6850E-3	-65.6757E-3	39.9690E-12	-780.503E-3	26.9294E-3
7.87402E-3	1.03866E-12	7.53123E-3	7.87402E-3	99.2641E-3	40.0268E-12	-737.942E-3	25.0356E-3
-3.93701E-3	-584.484E-15	-4.35473E-3	-3.93701E-3	-31.4387E-3	40.0040E-12	-792.772E-3	26.7921E-3
-15.7480E-3	-2.26830E-12	-16.1389E-3	-15.7480E-3	-69.3211E-3	40.0280E-12	-804.775E-3	25.6163E-3
-27.5591E-3	-3.96205E-12	-27.9507E-3	-27.5591E-3	-52.6512E-3	39.9729E-12	-844.383E-3	30.0571E-3
-39.3701E-3	-5.57761E-12	-39.7175E-3	-39.3701E-3	-70.0450E-3	40.0294E-12	-852.632E-3	26.3012E-3
-51.1811E-3	-7.05054E-12	-51.5691E-3	-51.1811E-3	20.5355E-3	39.9847E-12	-827.844E-3	28.5029E-3
-62.9921E-3	-8.66491E-12	-63.3279E-3	-62.9921E-3	8.76460E-3	40.0286E-12	-830.857E-3	24.4330E-3
-74.8032E-3	-9.56273E-12	-75.1665E-3	-74.8032E-3	55.7393E-3	39.9701E-12	-830.295E-3	26.9008E-3
-86.6142E-3	-10.1993E-12	-87.0289E-3	-86.6142E-3	-102.624E-3	40.0216E-12	-864.812E-3	27.1849E-3
-98.4252E-3	-10.9618E-12	-98.7967E-3	-98.4252E-3	-50.9842E-3	39.9483E-12	-871.990E-3	26.4801E-3
-110.236E-3	-11.9645E-12	-110.660E-3	-110.236E-3	4.54957E-3	39.9910E-12	-866.327E-3	26.4773E-3
-122.047E-3	-12.6257E-12	-122.397E-3	-122.047E-3	-6.03584E-3	39.9924E-12	-895.570E-3	27.1860E-3
-133.858E-3	-13.1406E-12	-134.252E-3	-133.858E-3	80.7303E-3	40.0226E-12	-871.594E-3	25.2672E-3
-145.669E-3	-13.9742E-12	-146.055E-3	-145.669E-3	-117.784E-3	40.0488E-12	-941.345E-3	28.6174E-3
-157.480E-3	-14.7870E-12	-157.828E-3	-157.480E-3	100.263E-3	39.9929E-12	-883.557E-3	25.6906E-3
-169.291E-3	-15.6372E-12	-169.698E-3	-169.291E-3	59.0031E-3	40.0362E-12	-898.613E-3	25.0528E-3
-181.102E-3	-16.1248E-12	-181.443E-3	-181.102E-3	-166.140E-3	39.9261E-12	-965.735E-3	29.9904E-3
-192.913E-3	-17.3380E-12	-193.238E-3	-192.913E-3	45.1736E-3	39.9708E-12	-933.012E-3	29.6022E-3
-204.724E-3	-17.8892E-12	-205.078E-3	-204.724E-3	-11.3397E-3	40.0759E-12	-939.302E-3	22.8250E-3
-216.535E-3	-18.6727E-12	-216.890E-3	-216.535E-3	-100.424E-3	39.9517E-12	-994.896E-3	28.5877E-3
-228.346E-3	-19.6872E-12	-228.709E-3	-228.346E-3	119.650E-3	40.0583E-12	-938.740E-3	24.9251E-3
-240.157E-3	-20.1922E-12	-240.509E-3	-240.157E-3	-113.459E-3	39.8605E-12	-992.769E-3	28.5339E-3
-251.969E-3	-21.1650E-12	-252.328E-3	-251.969E-3	64.3412E-3	40.0113E-12	-960.917E-3	27.8967E-3
-263.780E-3	-21.9755E-12	-264.094E-3	-263.780E-3	10.2975E-3	40.0272E-12	-994.072E-3	25.7375E-3
-275.591E-3	-22.8725E-12	-275.897E-3	-275.591E-3	-54.5779E-3	39.9219E-12	-1.01169E+0	25.8445E-3
-287.402E-3	-23.6635E-12	-287.743E-3	-287.402E-3	-37.2312E-3	39.9645E-12	-1.00293E+0	28.5277E-3
-299.213E-3	-24.7561E-12	-299.534E-3	-299.213E-3	27.7083E-3	39.9813E-12	-1.01200E+0	29.7500E-3
-311.024E-3	-25.5465E-12	-311.364E-3	-311.024E-3	37.1108E-3	39.9313E-12	-1.00629E+0	32.2848E-3
-322.835E-3	-26.5234E-12	-323.167E-3	-322.835E-3	-77.6023E-3	40.0501E-12	-1.03571E+0	26.9286E-3
-334.646E-3	-27.6001E-12	-334.935E-3	-334.646E-3	-168.004E-3	39.9885E-12	-1.10298E+0	27.8714E-3
-346.457E-3	-28.6808E-12	-346.743E-3	-346.457E-3	-51.0375E-3	40.0472E-12	-1.10794E+0	26.4691E-3
-358.268E-3	-29.8086E-12	-358.578E-3	-358.268E-3	73.4171E-3	40.0524E-12	-1.07861E+0	26.6266E-3
-370.079E-3	-30.5012E-12	-370.375E-3	-370.079E-3	-43.0715E-3	40.0231E-12	-1.09441E+0	29.0728E-3
-381.890E-3	-31.7100E-12	-382.139E-3	-381.890E-3	35.1472E-3	39.9791E-12	-1.12595E+0	30.1144E-3
-393.701E-3	-32.4025E-12	-394.009E-3	-393.701E-3	-22.3788E-3	40.0287E-12	-1.14688E+0	29.5582E-3
-405.512E-3	-33.0230E-12	-405.829E-3	-405.512E-3	-26.5510E-3	40.0198E-12	-1.14654E+0	25.1932E-3
-417.323E-3	-34.2334E-12	-417.631E-3	-417.323E-3	-130.808E-3	39.9244E-12	-1.20083E+0	30.8097E-3
-429.134E-3	-35.2799E-12	-429.439E-3	-429.134E-3	-43.9598E-3	40.0572E-12	-1.18060E+0	27.9869E-3
-440.945E-3	-35.8749E-12	-441.251E-3	-440.945E-3	92.2266E-3	40.0506E-12	-1.15318E+0	26.5983E-3
-452.756E-3	-36.7724E-12	-453.050E-3	-452.756E-3	-28.0820E-3	39.9536E-12	-1.19409E+0	29.2212E-3
-464.567E-3	-36.8662E-12	-464.867E-3	-464.567E-3	-145.693E-3	39.9983E-12	-1.24716E+0	28.8252E-3
-476.378E-3	-37.5382E-12	-476.700E-3	-476.378E-3	-131.838E-3	39.9339E-12	-1.26911E+0	31.7736E-3
-488.189E-3	-38.6263E-12	-488.436E-3	-488.189E-3	27.7873E-3	40.0000E-12	-1.20349E+0	26.7823E-3
-500.000E-3	-39.1810E-12	-500.276E-3	-500.000E-3	-154.502E-3	39.9812E-12	-1.28860E+0	29.7066E-3
