Experiment	bias spectroscopy	
Date	30.11.2015 16:31:18	
User		
X (m)	29.4834E-9	
Y (m)	-165.095E-9	
Z (m)	-3.75305E-9	
Z offset (m)	0E+0	
Settling time (s)	30E-3	
Integration time (s)	200E-3	
Z-Ctrl hold	TRUE	
Final Z (m)	-3.75305E-9	
Filter type	None	
Order		
Cutoff frq		
Current (A)	11.0377E-12	
Z (m)	-3.75305E-9	
Phase (deg)	-567.231E-3	
Amplitude (m)	39.8461E-12	
Frequency Shift (Hz)	-817.738E-3	
Excitation (V)	32.5598E-3	

[DATA]
Bias calc (V)	Current (A)	Applied Voltage measured (V)	Bias (V)	Phase (deg)	Amplitude (m)	Frequency Shift (Hz)	Excitation (V)
1.00000E+0	10.9690E-12	999.325E-3	1.00000E+0	91.6371E-3	40.0428E-12	-651.950E-3	24.9828E-3
988.189E-3	10.8281E-12	987.529E-3	988.189E-3	52.8649E-3	39.9912E-12	-636.023E-3	23.5588E-3
976.378E-3	10.7837E-12	975.767E-3	976.378E-3	1.83598E-3	39.9897E-12	-637.609E-3	27.3288E-3
964.567E-3	10.6058E-12	963.897E-3	964.567E-3	-3.99205E-3	39.9524E-12	-656.034E-3	25.8947E-3
952.756E-3	10.4894E-12	952.147E-3	952.756E-3	50.1203E-3	40.0014E-12	-631.514E-3	24.8227E-3
940.945E-3	10.5325E-12	940.302E-3	940.945E-3	-26.4766E-3	39.9900E-12	-652.790E-3	27.6935E-3
929.134E-3	10.4438E-12	928.489E-3	929.134E-3	-4.01548E-3	40.0114E-12	-661.144E-3	26.5286E-3
917.323E-3	10.4480E-12	916.738E-3	917.323E-3	-5.67845E-3	40.0689E-12	-656.148E-3	23.9178E-3
905.512E-3	10.2311E-12	904.877E-3	905.512E-3	13.0449E-3	39.9737E-12	-642.393E-3	25.6981E-3
893.701E-3	10.2136E-12	893.123E-3	893.701E-3	-20.0122E-3	40.0453E-12	-640.950E-3	23.8591E-3
881.890E-3	10.0216E-12	881.273E-3	881.890E-3	153.275E-3	39.9482E-12	-584.589E-3	25.5775E-3
870.079E-3	10.0707E-12	869.466E-3	870.079E-3	-48.3828E-3	39.9599E-12	-644.494E-3	24.5213E-3
858.268E-3	9.91183E-12	857.650E-3	858.268E-3	-39.8535E-3	40.0458E-12	-643.063E-3	24.0056E-3
846.457E-3	9.77936E-12	845.821E-3	846.457E-3	79.7596E-3	39.9661E-12	-595.197E-3	24.0325E-3
834.646E-3	9.76667E-12	834.043E-3	834.646E-3	-31.7562E-3	39.9921E-12	-626.836E-3	25.1834E-3
822.835E-3	9.56851E-12	822.239E-3	822.835E-3	92.4786E-3	40.0093E-12	-574.022E-3	25.8600E-3
811.024E-3	9.60465E-12	810.417E-3	811.024E-3	146.359E-3	40.0288E-12	-534.525E-3	22.6639E-3
799.213E-3	9.46383E-12	798.642E-3	799.213E-3	-21.7183E-3	39.9862E-12	-572.785E-3	26.1602E-3
787.402E-3	9.31647E-12	786.808E-3	787.402E-3	-23.5399E-3	40.0117E-12	-588.271E-3	26.5862E-3
775.591E-3	9.36381E-12	775.013E-3	775.591E-3	206.898E-3	40.0059E-12	-508.467E-3	25.6063E-3
763.780E-3	9.19560E-12	763.192E-3	763.780E-3	-77.8926E-3	39.9736E-12	-589.206E-3	25.8137E-3
751.969E-3	9.16751E-12	751.415E-3	751.969E-3	-66.5416E-3	40.0073E-12	-609.272E-3	24.8032E-3
740.157E-3	8.94572E-12	739.610E-3	740.157E-3	74.3791E-3	40.0140E-12	-548.851E-3	25.1852E-3
728.346E-3	8.84344E-12	727.772E-3	728.346E-3	85.2740E-3	40.0498E-12	-538.434E-3	24.4810E-3
716.535E-3	8.85806E-12	715.987E-3	716.535E-3	-86.8403E-3	39.9517E-12	-576.296E-3	23.8658E-3
704.724E-3	8.64595E-12	704.293E-3	704.724E-3	97.2316E-3	40.0696E-12	-530.450E-3	24.8858E-3
692.913E-3	8.44501E-12	692.501E-3	692.913E-3	18.8414E-3	39.9511E-12	-562.800E-3	25.9849E-3
681.102E-3	8.58214E-12	680.725E-3	681.102E-3	206.096E-3	40.0760E-12	-475.575E-3	22.4770E-3
669.291E-3	8.32722E-12	668.914E-3	669.291E-3	-143.630E-3	39.9755E-12	-594.860E-3	23.6379E-3
657.480E-3	8.26552E-12	657.075E-3	657.480E-3	-11.9882E-3	40.0400E-12	-540.370E-3	24.5876E-3
645.669E-3	8.11822E-12	645.262E-3	645.669E-3	63.1710E-3	39.9668E-12	-524.759E-3	26.5898E-3
633.858E-3	7.99854E-12	633.453E-3	633.858E-3	42.8580E-3	40.0197E-12	-534.226E-3	24.8391E-3
622.047E-3	7.95878E-12	621.643E-3	622.047E-3	14.0114E-3	40.0455E-12	-520.965E-3	26.0784E-3
610.236E-3	7.73209E-12	609.880E-3	610.236E-3	-55.1876E-3	40.0021E-12	-577.036E-3	23.9967E-3
598.425E-3	7.60596E-12	598.077E-3	598.425E-3	113.500E-3	40.0424E-12	-511.066E-3	24.6742E-3
586.614E-3	7.57152E-12	586.275E-3	586.614E-3	-101.335E-3	40.0425E-12	-572.084E-3	24.5268E-3
574.803E-3	7.29364E-12	574.453E-3	574.803E-3	-25.5211E-3	39.9687E-12	-556.385E-3	26.7278E-3
562.992E-3	7.27376E-12	562.665E-3	562.992E-3	30.2711E-3	40.0405E-12	-544.522E-3	28.0458E-3
551.181E-3	7.12006E-12	550.855E-3	551.181E-3	-7.06807E-3	40.0618E-12	-566.233E-3	23.7001E-3
539.370E-3	7.03159E-12	538.983E-3	539.370E-3	8.35087E-3	39.9202E-12	-554.722E-3	29.8536E-3
527.559E-3	6.94340E-12	527.201E-3	527.559E-3	23.9885E-3	40.0399E-12	-530.542E-3	26.7122E-3
515.748E-3	6.78480E-12	515.372E-3	515.748E-3	83.7836E-3	39.9615E-12	-518.733E-3	29.4257E-3
503.937E-3	6.62357E-12	503.578E-3	503.937E-3	129.557E-3	39.9966E-12	-490.821E-3	28.0114E-3
492.126E-3	6.48840E-12	491.763E-3	492.126E-3	86.0045E-3	40.0145E-12	-497.224E-3	25.7951E-3
480.315E-3	6.43684E-12	479.946E-3	480.315E-3	-3.35935E-3	40.0235E-12	-505.046E-3	28.2462E-3
468.504E-3	6.24333E-12	468.153E-3	468.504E-3	-11.3515E-3	40.0044E-12	-522.883E-3	24.7844E-3
456.693E-3	6.11765E-12	456.348E-3	456.693E-3	-28.5849E-3	39.9665E-12	-507.523E-3	28.3275E-3
444.882E-3	6.04316E-12	444.578E-3	444.882E-3	18.2752E-3	40.1038E-12	-501.390E-3	25.0092E-3
433.071E-3	5.78897E-12	432.744E-3	433.071E-3	-136.711E-3	39.9288E-12	-550.540E-3	25.8783E-3
421.260E-3	5.73327E-12	420.931E-3	421.260E-3	-15.4663E-3	39.9360E-12	-542.881E-3	27.5945E-3
409.449E-3	5.59303E-12	409.155E-3	409.449E-3	32.4725E-3	39.9926E-12	-533.687E-3	26.2580E-3
397.638E-3	5.49817E-12	397.304E-3	397.638E-3	-17.5379E-3	40.0378E-12	-547.061E-3	27.0062E-3
385.827E-3	5.38799E-12	385.555E-3	385.827E-3	73.9061E-3	40.0169E-12	-515.535E-3	23.9883E-3
374.016E-3	5.18495E-12	373.712E-3	374.016E-3	-51.1177E-3	39.9849E-12	-555.047E-3	28.2363E-3
362.205E-3	5.12337E-12	361.915E-3	362.205E-3	55.5833E-3	40.0142E-12	-511.427E-3	25.4721E-3
350.394E-3	4.92279E-12	350.164E-3	350.394E-3	-30.1110E-3	39.9771E-12	-556.664E-3	27.0692E-3
338.583E-3	4.76759E-12	338.301E-3	338.583E-3	-17.0410E-3	40.0155E-12	-551.197E-3	26.0779E-3
326.772E-3	4.58749E-12	326.509E-3	326.772E-3	-25.0898E-3	39.9493E-12	-531.053E-3	27.5607E-3
314.961E-3	4.43033E-12	314.678E-3	314.961E-3	-73.1064E-3	40.0414E-12	-569.952E-3	24.7685E-3
303.150E-3	4.30940E-12	302.858E-3	303.150E-3	17.4838E-3	40.0859E-12	-530.067E-3	25.0365E-3
291.339E-3	4.11531E-12	291.104E-3	291.339E-3	-34.5739E-3	40.0754E-12	-547.950E-3	22.8064E-3
279.528E-3	3.94650E-12	279.274E-3	279.528E-3	43.9824E-3	39.8894E-12	-547.726E-3	29.8751E-3
267.717E-3	3.80843E-12	267.462E-3	267.717E-3	145.110E-3	40.0178E-12	-491.960E-3	24.6556E-3
255.906E-3	3.64562E-12	255.646E-3	255.906E-3	68.8665E-3	40.0294E-12	-495.716E-3	24.6534E-3
244.094E-3	3.39807E-12	243.867E-3	244.094E-3	70.2511E-3	39.9146E-12	-503.150E-3	27.2310E-3
232.283E-3	3.26637E-12	232.016E-3	232.283E-3	-155.025E-3	39.9421E-12	-574.674E-3	27.6652E-3
220.472E-3	3.18984E-12	220.186E-3	220.472E-3	-39.9661E-3	40.1379E-12	-563.263E-3	21.2977E-3
208.661E-3	2.94093E-12	208.400E-3	208.661E-3	44.2307E-3	39.9303E-12	-528.358E-3	27.8556E-3
196.850E-3	2.72656E-12	196.579E-3	196.850E-3	-31.6787E-3	40.0129E-12	-561.613E-3	26.0963E-3
185.039E-3	2.59980E-12	184.813E-3	185.039E-3	-5.58872E-3	39.9477E-12	-562.240E-3	28.6707E-3
173.228E-3	2.40403E-12	172.993E-3	173.228E-3	60.8205E-3	40.0275E-12	-536.926E-3	24.8702E-3
161.417E-3	2.21220E-12	161.161E-3	161.417E-3	70.6034E-3	40.0248E-12	-522.414E-3	26.7955E-3
149.606E-3	2.01704E-12	149.334E-3	149.606E-3	-11.4560E-3	40.0011E-12	-546.384E-3	28.6225E-3
137.795E-3	1.87897E-12	137.542E-3	137.795E-3	31.2269E-3	40.0198E-12	-551.590E-3	26.1308E-3
125.984E-3	1.64622E-12	125.773E-3	125.984E-3	-43.8015E-3	40.0046E-12	-584.627E-3	24.5399E-3
114.173E-3	1.47676E-12	113.945E-3	114.173E-3	102.970E-3	39.9786E-12	-546.345E-3	24.7193E-3
102.362E-3	1.28573E-12	102.135E-3	102.362E-3	-93.9692E-3	40.0462E-12	-602.432E-3	26.5221E-3
90.5512E-3	1.13914E-12	90.3284E-3	90.5512E-3	-5.40626E-3	39.9760E-12	-593.944E-3	25.0230E-3
78.7402E-3	969.089E-15	78.4918E-3	78.7402E-3	62.8212E-3	40.0622E-12	-544.105E-3	23.6845E-3
66.9291E-3	772.126E-15	66.6215E-3	66.9291E-3	-50.0107E-3	39.9381E-12	-613.776E-3	27.3330E-3
55.1181E-3	614.156E-15	54.8509E-3	55.1181E-3	-50.6466E-3	40.0183E-12	-618.914E-3	26.7488E-3
43.3071E-3	436.158E-15	43.0211E-3	43.3071E-3	-133.265E-3	39.9364E-12	-632.852E-3	28.4755E-3
31.4961E-3	273.511E-15	31.1962E-3	31.4961E-3	-38.5938E-3	40.0028E-12	-618.997E-3	27.8631E-3
19.6850E-3	114.373E-15	19.4059E-3	19.6850E-3	-58.2556E-3	39.9604E-12	-633.253E-3	30.5410E-3
7.87402E-3	-42.0145E-15	7.55366E-3	7.87402E-3	57.5547E-3	39.9939E-12	-604.959E-3	28.4610E-3
-3.93701E-3	-178.982E-15	-4.33394E-3	-3.93701E-3	44.5643E-3	39.9622E-12	-604.306E-3	28.7686E-3
-15.7480E-3	-324.495E-15	-16.1232E-3	-15.7480E-3	11.7338E-3	40.0238E-12	-620.434E-3	25.7190E-3
-27.5591E-3	-458.774E-15	-27.9335E-3	-27.5591E-3	98.2227E-3	39.9707E-12	-581.849E-3	28.3138E-3
-39.3701E-3	-599.408E-15	-39.7069E-3	-39.3701E-3	-106.429E-3	39.9485E-12	-663.119E-3	29.2002E-3
-51.1811E-3	-737.543E-15	-51.5642E-3	-51.1811E-3	-77.7170E-3	39.9423E-12	-662.158E-3	27.3148E-3
-62.9921E-3	-900.103E-15	-63.3408E-3	-62.9921E-3	-27.7166E-3	40.0044E-12	-656.240E-3	26.7929E-3
-74.8032E-3	-987.498E-15	-75.1703E-3	-74.8032E-3	5.21377E-3	40.0700E-12	-636.241E-3	25.0745E-3
-86.6142E-3	-1.04956E-12	-87.0314E-3	-86.6142E-3	-108.677E-3	40.0159E-12	-678.156E-3	27.3854E-3
-98.4252E-3	-1.10848E-12	-98.7961E-3	-98.4252E-3	87.9341E-3	40.0108E-12	-645.565E-3	25.6608E-3
-110.236E-3	-1.16699E-12	-110.655E-3	-110.236E-3	-127.460E-3	40.0175E-12	-705.836E-3	24.5437E-3
-122.047E-3	-1.20746E-12	-122.403E-3	-122.047E-3	54.9310E-3	40.0081E-12	-658.615E-3	26.4693E-3
-133.858E-3	-1.24469E-12	-134.251E-3	-133.858E-3	-40.7353E-3	39.9705E-12	-678.655E-3	25.6509E-3
-145.669E-3	-1.25795E-12	-146.054E-3	-145.669E-3	15.0963E-3	39.9606E-12	-660.830E-3	24.0586E-3
-157.480E-3	-1.31597E-12	-157.827E-3	-157.480E-3	-13.3326E-3	40.0128E-12	-687.707E-3	26.3215E-3
-169.291E-3	-1.36086E-12	-169.700E-3	-169.291E-3	-118.348E-3	40.0706E-12	-713.034E-3	21.7843E-3
-181.102E-3	-1.37817E-12	-181.440E-3	-181.102E-3	28.7335E-3	39.9976E-12	-697.463E-3	25.5091E-3
-192.913E-3	-1.40680E-12	-193.244E-3	-192.913E-3	49.3476E-3	39.9323E-12	-689.530E-3	29.7630E-3
-204.724E-3	-1.45616E-12	-205.075E-3	-204.724E-3	13.9179E-3	40.0116E-12	-692.799E-3	25.5776E-3
-216.535E-3	-1.51072E-12	-216.878E-3	-216.535E-3	-83.1950E-3	40.0446E-12	-732.580E-3	24.6886E-3
-228.346E-3	-1.55095E-12	-228.693E-3	-228.346E-3	-17.3440E-3	39.9683E-12	-743.476E-3	24.7227E-3
-240.157E-3	-1.60366E-12	-240.493E-3	-240.157E-3	79.6327E-3	39.9949E-12	-704.161E-3	26.0545E-3
-251.969E-3	-1.61658E-12	-252.315E-3	-251.969E-3	-145.425E-3	40.0216E-12	-797.721E-3	25.7512E-3
-263.780E-3	-1.67886E-12	-264.079E-3	-263.780E-3	99.0608E-3	39.9917E-12	-731.155E-3	27.7653E-3
-275.591E-3	-1.74493E-12	-275.885E-3	-275.591E-3	-92.2829E-3	39.9517E-12	-805.217E-3	27.6024E-3
-287.402E-3	-1.76935E-12	-287.732E-3	-287.402E-3	57.4653E-3	39.9843E-12	-756.954E-3	25.9388E-3
-299.213E-3	-1.82994E-12	-299.515E-3	-299.213E-3	-131.714E-3	39.9945E-12	-825.146E-3	27.6184E-3
-311.024E-3	-1.89687E-12	-311.345E-3	-311.024E-3	-49.0468E-3	40.0061E-12	-817.274E-3	25.1111E-3
-322.835E-3	-1.94732E-12	-323.137E-3	-322.835E-3	46.2817E-3	40.0017E-12	-788.684E-3	24.9543E-3
-334.646E-3	-1.98884E-12	-334.907E-3	-334.646E-3	-103.120E-3	39.9847E-12	-840.276E-3	26.9169E-3
-346.457E-3	-2.06223E-12	-346.729E-3	-346.457E-3	-102.507E-3	40.0358E-12	-875.387E-3	25.6221E-3
-358.268E-3	-2.12911E-12	-358.569E-3	-358.268E-3	122.716E-3	39.9988E-12	-808.264E-3	27.2254E-3
-370.079E-3	-2.16596E-12	-370.380E-3	-370.079E-3	-65.5200E-3	39.9976E-12	-853.148E-3	27.5136E-3
-381.890E-3	-2.21430E-12	-382.149E-3	-381.890E-3	-94.9813E-3	39.9745E-12	-849.809E-3	26.0459E-3
-393.701E-3	-2.27380E-12	-394.019E-3	-393.701E-3	52.6654E-3	40.0279E-12	-823.695E-3	25.7427E-3
-405.512E-3	-2.31602E-12	-405.826E-3	-405.512E-3	-152.371E-3	40.0177E-12	-903.081E-3	27.3342E-3
-417.323E-3	-2.36144E-12	-417.622E-3	-417.323E-3	-1.39473E-3	39.9428E-12	-891.604E-3	27.9038E-3
-429.134E-3	-2.40175E-12	-429.419E-3	-429.134E-3	-92.0074E-3	39.9843E-12	-924.312E-3	27.8388E-3
-440.945E-3	-2.45421E-12	-441.229E-3	-440.945E-3	-14.9908E-3	40.0727E-12	-924.289E-3	24.0374E-3
-452.756E-3	-2.45156E-12	-453.029E-3	-452.756E-3	-66.3832E-3	39.9468E-12	-938.203E-3	29.3963E-3
-464.567E-3	-2.50294E-12	-464.855E-3	-464.567E-3	-24.6990E-3	40.0808E-12	-932.597E-3	25.3727E-3
-476.378E-3	-2.50497E-12	-476.680E-3	-476.378E-3	-39.2964E-3	40.0095E-12	-944.227E-3	25.2815E-3
-488.189E-3	-2.52393E-12	-488.407E-3	-488.189E-3	-9.45406E-3	39.9695E-12	-951.777E-3	29.4546E-3
-500.000E-3	-2.53084E-12	-500.248E-3	-500.000E-3	-34.9197E-3	40.0366E-12	-957.414E-3	28.3090E-3
